# 2Theta,Counts
  36.07001, 256.19683
  36.09003, 268.59426
  36.11004, 265.54088
  36.13006, 256.66342
  36.15008, 263.15215
  36.17010, 267.44650
  36.19011, 273.38117
  36.21013, 266.52867
  36.23015, 275.89508
  36.25017, 267.26426
  36.27019, 263.11181
  36.29020, 262.92112
  36.31022, 242.30644
  36.33024, 256.44166
  36.35026, 264.81891
  36.37028, 256.29045
  36.39029, 254.60475
  36.41031, 265.65089
  36.43033, 269.43037
  36.45035, 265.27681
  36.47036, 264.70952
  36.49038, 265.60780
  36.51040, 260.28752
  36.53042, 254.91188
  36.55044, 267.50327
  36.57045, 256.85178
  36.59047, 263.85272
  36.61049, 274.45853
  36.63051, 276.10313
  36.65052, 275.71453
  36.67054, 274.57587
  36.69056, 269.79465
  36.71058, 254.85710
  36.73060, 260.76516
  36.75061, 258.77601
  36.77063, 271.57416
  36.79065, 258.28436
  36.81067, 255.31057
  36.83069, 256.58696
  36.85070, 249.20596
  36.87072, 261.11007
  36.89074, 263.65773
  36.91076, 252.98857
  36.93077, 262.88995
  36.95079, 261.18615
  36.97081, 261.13629
  36.99083, 260.18749
  37.01085, 258.08955
  37.03086, 257.38446
  37.05088, 255.89291
  37.07090, 246.35070
  37.09092, 264.93428
  37.11094, 248.96509
  37.13095, 265.99438
  37.15097, 252.26572
  37.17099, 259.46291
  37.19101, 250.25398
  37.21103, 249.26642
  37.23104, 261.38491
  37.25106, 259.03371
  37.27108, 258.70403
  37.29110, 266.39400
  37.31111, 249.84116
  37.33113, 247.48094
  37.35115, 255.08371
  37.37117, 255.94729
  37.39119, 256.76272
  37.41120, 254.31610
  37.43122, 262.02623
  37.45124, 266.67427
  37.47126, 252.16096
  37.49128, 267.03509
  37.51129, 251.92662
  37.53131, 244.46488
  37.55133, 252.24587
  37.57135, 270.29701
  37.59137, 274.43093
  37.61138, 257.88327
  37.63140, 244.35427
  37.65142, 244.79838
  37.67144, 263.65742
  37.69146, 258.27966
  37.71147, 252.21570
  37.73149, 265.67953
  37.75151, 256.74079
  37.77153, 246.89239
  37.79155, 249.70777
  37.81156, 246.59538
  37.83158, 246.46180
  37.85160, 247.94641
  37.87162, 235.38957
  37.89164, 251.40604
  37.91165, 245.42907
  37.93167, 239.91260
  37.95169, 258.73430
  37.97171, 252.41312
  37.99173, 256.89367
  38.01174, 255.21861
  38.03176, 254.28439
  38.05178, 254.88525
  38.07180, 248.12663
  38.09182, 260.32307
  38.11183, 259.06099
  38.13185, 255.15287
  38.15187, 229.86955
  38.17189, 248.62497
  38.19191, 252.50004
  38.21192, 250.02807
  38.23194, 257.01277
  38.25196, 241.53499
  38.27198, 236.84076
  38.29200, 233.61255
  38.31202, 248.41777
  38.33203, 241.12054
  38.35205, 241.28458
  38.37207, 233.17643
  38.39209, 250.11035
  38.41210, 251.71642
  38.43212, 244.18362
  38.45214, 238.49288
  38.47216, 247.32500
  38.49218, 230.53607
  38.51219, 248.83065
  38.53221, 253.98881
  38.55223, 254.98600
  38.57225, 243.11379
  38.59227, 240.63021
  38.61229, 244.62665
  38.63230, 233.36529
  38.65232, 240.96608
  38.67234, 234.69810
  38.69236, 239.24120
  38.71238, 244.81798
  38.73239, 231.96581
  38.75241, 243.78790
  38.77243, 251.26274
  38.79245, 238.88982
  38.81247, 236.93202
  38.83248, 239.38494
  38.85250, 230.92126
  38.87252, 232.32174
  38.89254, 241.24057
  38.91256, 230.04642
  38.93257, 236.00077
  38.95259, 244.94125
  38.97261, 244.14636
  38.99263, 243.69936
  39.01265, 228.12793
  39.03266, 237.94044
  39.05268, 249.10755
  39.07270, 249.00200
  39.09272, 231.08496
  39.11274, 237.81044
  39.13276, 236.76396
  39.15277, 240.48178
  39.17279, 237.82401
  39.19281, 239.73815
  39.21283, 239.28896
  39.23285, 246.07946
  39.25286, 243.05463
  39.27288, 242.91497
  39.29290, 239.82305
  39.31292, 226.47762
  39.33294, 235.70686
  39.35296, 247.09497
  39.37297, 247.51895
  39.39299, 235.87196
  39.41301, 231.57014
  39.43303, 234.81031
  39.45305, 237.49691
  39.47306, 239.22320
  39.49308, 230.46316
  39.51310, 236.78995
  39.53312, 242.15015
  39.55314, 249.28184
  39.57315, 248.15679
  39.59317, 243.33469
  39.61319, 244.91023
  39.63321, 233.37844
  39.65323, 246.94201
  39.67325, 223.59037
  39.69326, 236.33037
  39.71328, 231.77552
  39.73330, 233.44956
  39.75332, 230.93562
  39.77334, 235.97741
  39.79336, 233.02155
  39.81337, 221.27826
  39.83339, 236.16652
  39.85341, 229.71003
  39.87343, 240.82902
  39.89345, 227.77161
  39.91346, 238.48373
  39.93348, 234.11091
  39.95350, 236.47685
  39.97352, 225.76203
  39.99354, 236.85632
  40.01356, 236.63292
  40.03357, 242.24656
  40.05359, 226.42733
  40.07361, 234.00036
  40.09363, 238.68966
  40.11365, 225.72675
  40.13367, 231.35619
  40.15368, 237.63803
  40.17370, 238.42892
  40.19372, 230.17708
  40.21374, 225.62962
  40.23376, 230.71920
  40.25377, 239.32423
  40.27379, 233.98955
  40.29381, 230.86189
  40.31383, 215.89493
  40.33385, 223.54496
  40.35387, 230.50911
  40.37388, 237.20878
  40.39390, 234.86541
  40.41392, 238.58039
  40.43394, 225.58435
  40.45396, 220.06385
  40.47398, 232.52997
  40.49399, 225.47157
  40.51401, 222.67116
  40.53403, 220.12691
  40.55405, 224.27836
  40.57407, 223.07454
  40.59409, 226.11667
  40.61410, 233.38959
  40.63412, 229.43063
  40.65414, 228.26927
  40.67416, 226.31690
  40.69418, 229.67591
  40.71419, 225.50590
  40.73421, 223.84721
  40.75423, 235.03442
  40.77425, 231.18573
  40.79427, 233.86436
  40.81429, 220.69223
  40.83431, 225.11201
  40.85432, 222.15703
  40.87434, 229.28264
  40.89436, 225.88104
  40.91438, 220.02255
  40.93440, 232.82264
  40.95442, 219.19231
  40.97443, 232.74490
  40.99445, 222.63443
  41.01447, 221.96817
  41.03449, 222.16172
  41.05451, 220.27640
  41.07452, 221.66280
  41.09454, 233.31628
  41.11456, 225.91705
  41.13458, 223.52929
  41.15460, 223.11782
  41.17462, 220.68088
  41.19464, 231.02474
  41.21465, 232.65865
  41.23467, 238.75351
  41.25469, 227.35121
  41.27471, 223.39289
  41.29473, 232.45646
  41.31475, 223.66179
  41.33476, 215.10106
  41.35478, 225.53618
  41.37480, 223.99014
  41.39482, 210.01960
  41.41484, 224.23531
  41.43486, 222.55541
  41.45487, 219.52710
  41.47489, 225.18077
  41.49491, 228.55598
  41.51493, 223.20867
  41.53495, 220.44784
  41.55497, 223.26888
  41.57498, 219.63588
  41.59500, 226.21328
  41.61502, 230.72087
  41.63504, 224.99125
  41.65506, 214.53868
  41.67508, 232.66571
  41.69510, 221.27413
  41.71511, 222.84447
  41.73513, 230.33308
  41.75515, 220.22216
  41.77517, 226.65842
  41.79519, 229.21888
  41.81521, 226.47111
  41.83522, 221.49407
  41.85524, 219.92147
  41.87526, 220.46440
  41.89528, 222.43495
  41.91530, 231.07587
  41.93532, 221.59725
  41.95534, 222.41935
  41.97535, 216.72138
  41.99537, 217.88956
  42.01539, 214.21968
  42.03541, 209.02485
  42.05543, 215.59974
  42.07545, 213.18056
  42.09546, 214.99325
  42.11548, 216.03276
  42.13550, 219.92238
  42.15552, 219.24821
  42.17554, 216.25059
  42.19556, 220.62709
  42.21558, 230.47520
  42.23559, 229.49054
  42.25561, 224.35856
  42.27563, 218.54286
  42.29565, 226.62226
  42.31567, 225.46578
  42.33569, 219.08080
  42.35571, 223.57504
  42.37572, 225.55195
  42.39574, 217.33555
  42.41576, 218.38229
  42.43578, 212.24470
  42.45580, 213.08533
  42.47582, 220.28944
  42.49584, 225.71826
  42.51585, 216.62843
  42.53587, 228.93290
  42.55589, 227.80339
  42.57591, 230.32098
  42.59593, 226.94865
  42.61595, 230.86111
  42.63597, 222.46225
  42.65598, 236.75817
  42.67600, 230.44575
  42.69602, 223.00159
  42.71604, 216.66143
  42.73606, 220.69674
  42.75608, 218.49103
  42.77609, 225.12231
  42.79611, 231.71909
  42.81613, 230.83201
  42.83615, 224.19269
  42.85617, 224.47562
  42.87619, 225.29525
  42.89621, 226.18224
  42.91622, 232.08479
  42.93624, 221.66279
  42.95626, 225.49383
  42.97628, 243.82869
  42.99630, 229.11478
  43.01632, 217.58208
  43.03634, 232.23448
  43.05636, 238.23905
  43.07637, 238.17762
  43.09639, 227.26256
  43.11641, 235.28803
  43.13643, 244.12184
  43.15645, 251.18634
  43.17647, 250.93949
  43.19649, 253.18948
  43.21650, 267.54432
  43.23652, 267.10726
  43.25654, 277.08191
  43.27656, 278.75548
  43.29658, 303.45972
  43.31660, 332.07629
  43.33661, 363.43505
  43.35663, 408.56781
  43.37665, 479.76299
  43.39667, 582.78874
  43.41669, 783.90819
  43.43671,1019.82280
  43.45673,1345.11010
  43.47675,1586.72520
  43.49676,1794.26400
  43.51678,1914.22500
  43.53680,1902.18950
  43.55682,1778.10980
  43.57684,1623.83360
  43.59686,1440.43820
  43.61688,1262.40250
  43.63689,1141.50230
  43.65691,1000.73970
  43.67693, 850.30163
  43.69695, 678.21570
  43.71697, 514.18432
  43.73699, 415.03714
  43.75701, 342.40671
  43.77703, 312.24316
  43.79704, 288.44607
  43.81706, 274.07750
  43.83708, 268.04654
  43.85710, 260.14200
  43.87712, 270.10779
  43.89714, 263.41862
  43.91716, 242.73425
  43.93718, 250.22585
  43.95719, 236.64036
  43.97721, 244.19947
  43.99723, 235.49916
  44.01725, 247.62572
  44.03727, 237.38101
  44.05729, 233.27793
  44.07731, 241.70729
  44.09733, 236.89649
  44.11734, 235.83557
  44.13736, 236.17462
  44.15738, 266.39889
  44.17740, 249.74879
  44.19742, 252.70312
  44.21744, 263.02911
  44.23746, 268.50551
  44.25748, 281.09201
  44.27749, 291.64227
  44.29751, 310.45179
  44.31753, 315.87676
  44.33755, 350.98735
  44.35757, 387.95436
  44.37759, 439.21879
  44.39761, 497.33235
  44.41763, 603.13777
  44.43764, 779.99970
  44.45766,1016.24610
  44.47768,1322.94290
  44.49770,1682.50010
  44.51772,2027.30410
  44.53774,2243.22930
  44.55776,2411.28260
  44.57778,2405.26490
  44.59780,2311.41670
  44.61781,2085.61180
  44.63783,1882.23710
  44.65785,1596.05170
  44.67787,1365.86400
  44.69789,1246.26020
  44.71791,1079.81120
  44.73793, 855.34854
  44.75794, 636.82753
  44.77796, 488.93679
  44.79798, 399.98585
  44.81800, 322.74808
  44.83802, 307.64500
  44.85804, 290.50376
  44.87806, 278.97395
  44.89808, 266.38232
  44.91810, 247.65867
  44.93811, 243.88681
  44.95813, 224.96504
  44.97815, 213.60957
  44.99817, 222.23966
  45.01819, 221.79986
  45.03821, 215.55176
  45.05823, 214.46934
  45.07825, 200.68447
  45.09827, 213.77112
  45.11828, 210.36741
  45.13830, 217.10412
  45.15832, 206.73850
  45.17834, 208.86958
  45.19836, 203.65491
  45.21838, 211.94128
  45.23840, 197.24809
  45.25842, 198.85331
  45.27844, 199.45086
  45.29845, 200.03384
  45.31847, 197.04358
  45.33849, 203.88976
  45.35851, 193.91909
  45.37853, 197.40872
  45.39855, 202.21542
  45.41857, 195.04754
  45.43859, 196.65356
  45.45861, 200.08153
  45.47862, 198.26123
  45.49864, 194.85122
  45.51866, 202.10345
  45.53868, 196.11800
  45.55870, 203.92728
  45.57872, 202.17271
  45.59874, 195.83584
  45.61876, 190.87827
  45.63878, 200.19918
  45.65880, 203.64619
  45.67881, 205.54131
  45.69883, 196.31626
  45.71885, 192.15590
  45.73887, 190.46355
  45.75889, 204.28446
  45.77891, 197.71072
  45.79893, 188.60659
  45.81895, 199.46282
  45.83897, 198.14622
  45.85898, 196.72100
  45.87900, 205.16950
  45.89902, 195.57458
  45.91904, 190.35805
  45.93906, 196.24361
  45.95908, 199.46620
  45.97910, 194.47108
  45.99912, 190.45161
  46.01914, 203.58569
  46.03916, 190.39964
  46.05917, 191.67865
  46.07919, 190.84013
  46.09921, 183.84215
  46.11923, 197.04961
  46.13925, 189.77330
  46.15927, 190.12792
  46.17929, 192.29650
  46.19931, 203.89665
  46.21933, 187.70175
  46.23935, 190.15931
  46.25936, 197.14058
  46.27938, 206.54889
  46.29940, 195.34866
  46.31942, 196.17956
  46.33944, 189.91043
  46.35946, 192.51645
  46.37948, 190.68836
  46.39950, 188.27712
  46.41952, 187.61727
  46.43954, 184.98849
  46.45956, 195.18711
  46.47957, 196.70183
  46.49959, 188.08527
  46.51961, 185.76413
  46.53963, 187.50894
  46.55965, 186.94095
  46.57967, 190.89120
  46.59969, 177.30465
  46.61971, 182.54608
  46.63973, 188.53572
  46.65975, 193.17352
  46.67976, 185.24205
  46.69978, 184.39341
  46.71980, 187.55640
  46.73982, 184.50147
  46.75984, 186.20964
  46.77986, 192.44985
  46.79988, 184.67071
  46.81990, 189.74587
  46.83992, 180.78776
  46.85994, 196.04408
  46.87996, 190.03368
  46.89997, 194.76713
  46.91999, 189.78012
  46.94001, 179.90284
  46.96003, 184.76133
  46.98005, 179.86301
  47.00007, 190.89229
  47.02009, 190.85076
  47.04011, 185.68886
  47.06013, 193.65554
  47.08015, 181.54565
  47.10017, 177.27691
  47.12019, 181.29883
  47.14021, 185.35847
  47.16022, 190.15640
  47.18024, 179.73079
  47.20026, 180.68747
  47.22028, 176.54344
  47.24030, 173.77754
  47.26032, 181.04821
  47.28034, 173.74174
  47.30036, 183.52977
  47.32038, 184.11204
  47.34040, 187.92394
  47.36042, 188.09424
  47.38043, 183.05137
  47.40045, 168.66769
  47.42047, 177.75899
  47.44049, 193.79114
  47.46051, 179.58108
  47.48053, 182.14270
  47.50055, 170.27519
  47.52057, 174.33300
  47.54059, 177.42047
  47.56061, 193.93495
  47.58063, 180.62150
  47.60065, 188.10193
  47.62067, 186.16923
  47.64068, 182.61929
  47.66070, 180.16637
  47.68072, 177.54718
  47.70074, 180.75054
  47.72076, 180.30614
  47.74078, 186.99909
  47.76080, 180.72171
  47.78082, 176.18921
  47.80084, 177.31135
  47.82086, 179.03499
  47.84088, 169.63172
  47.86090, 174.74011
  47.88092, 175.28610
  47.90094, 175.58884
  47.92095, 183.96175
  47.94097, 180.54021
  47.96099, 182.89458
  47.98101, 184.93064
  48.00103, 179.44304
  48.02105, 179.37253
  48.04107, 176.81961
  48.06109, 168.37005
  48.08111, 168.69148
  48.10113, 170.01174
  48.12115, 176.22578
  48.14117, 173.46848
  48.16119, 176.58871
  48.18121, 173.66805
  48.20123, 171.70021
  48.22124, 177.58617
  48.24126, 183.61265
  48.26128, 169.07500
  48.28130, 175.73052
  48.30132, 171.27352
  48.32134, 175.99879
  48.34136, 173.81480
  48.36138, 177.16217
  48.38140, 182.15016
  48.40142, 180.70295
  48.42144, 180.01761
  48.44146, 180.09235
  48.46148, 187.90107
  48.48150, 178.70052
  48.50152, 171.23394
  48.52153, 171.74299
  48.54155, 168.39032
  48.56157, 169.63959
  48.58159, 170.79145
  48.60161, 177.56933
  48.62163, 180.61791
  48.64165, 178.84390
  48.66167, 172.21695
  48.68169, 172.78814
  48.70171, 175.74384
  48.72173, 175.43191
  48.74175, 166.89829
  48.76177, 167.71552
  48.78179, 176.00258
  48.80181, 171.20268
  48.82183, 171.73584
  48.84184, 182.20184
  48.86186, 172.17310
  48.88188, 168.64432
  48.90190, 173.90019
  48.92192, 175.36867
  48.94194, 174.82943
  48.96196, 162.02789
  48.98198, 177.39997
  49.00200, 171.40085
  49.02202, 164.18606
  49.04204, 168.36208
  49.06206, 172.08189
  49.08208, 172.22319
  49.10210, 172.17882
  49.12212, 173.81959
  49.14214, 182.58706
  49.16216, 171.00141
  49.18217, 167.40576
  49.20219, 175.10888
  49.22221, 168.40430
  49.24223, 174.09396
  49.26225, 173.38104
  49.28227, 177.09066
  49.30229, 172.33258
  49.32231, 167.62838
  49.34233, 165.13066
  49.36235, 170.30032
  49.38237, 174.67289
  49.40239, 176.73290
  49.42241, 172.48858
  49.44243, 170.84398
  49.46245, 175.51382
  49.48247, 171.60339
  49.50249, 176.35140
  49.52251, 168.71566
  49.54253, 161.16749
  49.56255, 158.08208
  49.58257, 174.69313
  49.60259, 175.06201
  49.62260, 170.77348
  49.64262, 172.65245
  49.66264, 178.45312
  49.68266, 164.30287
  49.70268, 165.37519
  49.72270, 170.63609
  49.74272, 168.11695
  49.76274, 172.19207
  49.78276, 169.31342
  49.80278, 173.57951
  49.82280, 171.32674
  49.84282, 168.85748
  49.86284, 177.73229
  49.88286, 176.51037
  49.90288, 175.69548
  49.92290, 174.05524
  49.94292, 171.28557
  49.96294, 165.20942
  49.98296, 164.73253
  50.00298, 169.61602
  50.02299, 169.86466
  50.04301, 173.00063
  50.06303, 177.71339
  50.08305, 186.12081
  50.10307, 178.45146
  50.12309, 176.60064
  50.14311, 172.80486
  50.16313, 179.64441
  50.18315, 176.19101
  50.20317, 174.25932
  50.22319, 184.02420
  50.24321, 190.92391
  50.26323, 191.47510
  50.28325, 186.60448
  50.30327, 189.67313
  50.32329, 199.40232
  50.34331, 200.07283
  50.36333, 201.29089
  50.38335, 210.97402
  50.40337, 224.39862
  50.42339, 233.58857
  50.44341, 250.43415
  50.46343, 269.76161
  50.48345, 284.22120
  50.50347, 315.59113
  50.52349, 332.13549
  50.54351, 382.06790
  50.56353, 413.52937
  50.58355, 482.30348
  50.60357, 560.09495
  50.62358, 621.32450
  50.64360, 709.39754
  50.66362, 728.97144
  50.68364, 758.25578
  50.70366, 746.51222
  50.72368, 718.95373
  50.74370, 669.89129
  50.76372, 621.14746
  50.78374, 553.49294
  50.80376, 495.00993
  50.82378, 481.06400
  50.84380, 422.46173
  50.86382, 392.44504
  50.88384, 349.77174
  50.90386, 287.53640
  50.92388, 244.58738
  50.94390, 227.17021
  50.96392, 206.30629
  50.98394, 184.06755
  51.00396, 180.92697
  51.02398, 181.10022
  51.04400, 178.62905
  51.06402, 168.92358
  51.08404, 161.76620
  51.10406, 172.31933
  51.12408, 166.54439
  51.14410, 170.20810
  51.16412, 169.49270
  51.18414, 170.62171
  51.20416, 175.55891
  51.22418, 163.11173
  51.24420, 160.50980
  51.26422, 164.99748
  51.28424, 162.49266
  51.30426, 157.53963
  51.32428, 161.28557
  51.34430, 163.42327
  51.36432, 165.46069
  51.38434, 161.30818
  51.40435, 168.25772
  51.42438, 166.37947
  51.44440, 172.24661
  51.46441, 157.50689
  51.48444, 163.37473
  51.50446, 173.91608
  51.52447, 161.55521
  51.54449, 160.69327
  51.56451, 160.85145
  51.58453, 158.38350
  51.60455, 163.02242
  51.62457, 155.95211
  51.64459, 163.98949
  51.66461, 168.75121
  51.68463, 161.03871
  51.70465, 165.44229
  51.72467, 155.46180
  51.74469, 153.10188
  51.76471, 157.46385
  51.78473, 162.48384
  51.80475, 152.21152
  51.82477, 146.43767
  51.84479, 158.56892
  51.86481, 149.67984
  51.88483, 165.67943
  51.90485, 164.68755
  51.92487, 151.30318
  51.94489, 153.50189
  51.96491, 157.58819
  51.98493, 157.74861
  52.00495, 154.47040
  52.02497, 161.48452
  52.04499, 156.43246
  52.06501, 150.56549
  52.08503, 161.41267
  52.10505, 159.77257
  52.12507, 157.81672
  52.14509, 167.02807
  52.16511, 161.16952
  52.18513, 163.58545
  52.20515, 155.71782
  52.22517, 162.63366
  52.24519, 156.26836
  52.26521, 160.26750
  52.28523, 159.24086
  52.30525, 147.93146
  52.32527, 146.88204
  52.34529, 149.40169
  52.36531, 159.35452
  52.38533, 157.47413
  52.40535, 160.83383
  52.42537, 152.42586
  52.44539, 152.33744
  52.46541, 156.61928
  52.48543, 159.34872
  52.50545, 161.78608
  52.52547, 151.16086
  52.54549, 154.05873
  52.56551, 165.60256
  52.58553, 158.62947
  52.60555, 147.50650
  52.62557, 150.28975
  52.64559, 150.09584
  52.66561, 150.60022
  52.68563, 151.69902
  52.70565, 154.30407
  52.72567, 150.21350
  52.74569, 148.50697
  52.76571, 153.38117
  52.78573, 153.72598
  52.80575, 147.14218
  52.82577, 147.75957
  52.84579, 148.10625
  52.86581, 150.24918
  52.88583, 154.72373
  52.90585, 153.96631
  52.92587, 143.26665
  52.94589, 153.25695
  52.96591, 153.81169
  52.98593, 152.47983
  53.00595, 147.16791
  53.02597, 153.57284
  53.04599, 152.46003
  53.06601, 146.71869
  53.08603, 145.39630
  53.10605, 144.25541
  53.12607, 152.49084
  53.14609, 159.86468
  53.16611, 153.59348
  53.18613, 145.56169
  53.20615, 149.43103
  53.22617, 154.36364
  53.24619, 153.80115
  53.26621, 145.42374
  53.28623, 151.86486
  53.30626, 153.91586
  53.32627, 157.32761
  53.34630, 158.74602
  53.36632, 156.41394
  53.38633, 153.19182
  53.40635, 148.55492
  53.42638, 149.46413
  53.44640, 156.04088
  53.46642, 146.88233
  53.48644, 154.15971
  53.50646, 144.78978
  53.52648, 142.50709
  53.54650, 151.57003
  53.56652, 154.39087
  53.58654, 144.71021
  53.60656, 151.58941
  53.62658, 147.90310
  53.64660, 151.49414
  53.66662, 152.55369
  53.68664, 148.59940
  53.70666, 151.68017
  53.72668, 148.35904
  53.74670, 155.31532
  53.76672, 146.58796
  53.78674, 148.22781
  53.80676, 150.44862
  53.82678, 152.12903
  53.84680, 152.41444
  53.86682, 149.57679
  53.88684, 142.15062
  53.90686, 151.83299
  53.92688, 152.49323
  53.94690, 151.24672
  53.96692, 150.84738
  53.98694, 149.98998
  54.00696, 151.00599
  54.02698, 155.98954
  54.04700, 146.77054
  54.06702, 142.95708
  54.08704, 145.83104
  54.10706, 150.92762
  54.12708, 146.17381
  54.14710, 148.50756
  54.16712, 143.03673
  54.18714, 141.24455
  54.20716, 146.99179
  54.22718, 150.78551
  54.24721, 146.21247
  54.26723, 150.81986
  54.28725, 145.46812
  54.30727, 154.17922
  54.32729, 150.38200
  54.34731, 149.87653
  54.36733, 142.85782
  54.38735, 148.31023
  54.40737, 141.43268
  54.42739, 151.73734
  54.44741, 144.71075
  54.46743, 152.73791
  54.48745, 155.53649
  54.50747, 151.52200
  54.52749, 149.39998
  54.54751, 147.76452
  54.56753, 151.93712
  54.58755, 156.31140
  54.60757, 143.02137
  54.62759, 147.53699
  54.64761, 142.60033
  54.66763, 144.75677
  54.68765, 153.01000
  54.70767, 156.24837
  54.72769, 152.35062
  54.74771, 148.27974
  54.76773, 145.14120
  54.78776, 136.37752
  54.80778, 150.17148
  54.82780, 150.19483
  54.84782, 141.85450
  54.86784, 142.96459
  54.88786, 139.90162
  54.90788, 142.43087
  54.92790, 147.53475
  54.94792, 141.85567
  54.96794, 141.80989
  54.98796, 141.96351
  55.00798, 148.97103
  55.02800, 144.77691
  55.04802, 149.17150
  55.06804, 145.35017
  55.08806, 139.73357
  55.10808, 142.85004
  55.12810, 149.67990
  55.14812, 141.72859
  55.16814, 133.96400
  55.18816, 138.04613
  55.20819, 138.46857
  55.22821, 143.86938
  55.24823, 147.15803
  55.26825, 141.52900
  55.28827, 140.39747
  55.30829, 147.59244
  55.32831, 146.45591
  55.34833, 146.09196
  55.36835, 141.26181
  55.38837, 140.33795
  55.40839, 146.26709
  55.42841, 139.65805
  55.44843, 147.09252
  55.46845, 140.75731
  55.48847, 139.52825
  55.50849, 143.23206
  55.52851, 152.45381
  55.54853, 145.42069
  55.56855, 145.26690
  55.58857, 140.02681
  55.60860, 138.47234
  55.62862, 145.50965
  55.64864, 139.21634
  55.66866, 141.38708
  55.68868, 141.19140
  55.70870, 144.18779
  55.72872, 146.25647
  55.74874, 140.84485
  55.76876, 143.91256
  55.78878, 145.81223
  55.80880, 148.00214
  55.82882, 134.85468
  55.84884, 141.07541
  55.86886, 148.37215
  55.88888, 140.28795
  55.90890, 143.44322
  55.92893, 140.25070
  55.94895, 146.79373
  55.96897, 145.29283
  55.98899, 144.81310
  56.00901, 139.92708
  56.02903, 140.17671
  56.04905, 133.83263
  56.06907, 138.00169
  56.08909, 141.49770
  56.10911, 137.30107
  56.12913, 136.50360
  56.14915, 136.01724
  56.16917, 145.37066
  56.18919, 143.19250
  56.20921, 138.00121
  56.22924, 140.17502
  56.24926, 143.34058
  56.26928, 142.37123
  56.28930, 139.51662
  56.30932, 135.44178
  56.32934, 141.31689
  56.34936, 145.17375
  56.36938, 137.98310
  56.38940, 146.27895
  56.40942, 143.95568
  56.42944, 144.61553
  56.44946, 140.04288
  56.46948, 141.49643
  56.48950, 139.43181
  56.50953, 139.08817
  56.52955, 135.20951
  56.54957, 136.77084
  56.56959, 142.20632
  56.58961, 133.34506
  56.60963, 139.62977
  56.62965, 140.58933
  56.64967, 140.76078
  56.66969, 137.06787
  56.68971, 136.99764
  56.70973, 139.14676
  56.72975, 144.90585
  56.74978, 132.74159
  56.76980, 138.36414
  56.78982, 139.40644
  56.80984, 135.96661
  56.82986, 139.42733
  56.84988, 139.57432
  56.86990, 140.24647
  56.88992, 139.98694
  56.90994, 141.23323
  56.92996, 136.17084
  56.94998, 140.59612
  56.97000, 139.18763
  56.99002, 141.69104
  57.01005, 141.21048
  57.03007, 143.62586
  57.05009, 142.40901
  57.07011, 137.99687
  57.09013, 133.52368
  57.11015, 137.85415
  57.13017, 130.18262
  57.15019, 137.45586
  57.17021, 143.17659
  57.19023, 141.87442
  57.21025, 136.12698
  57.23027, 129.94983
  57.25030, 132.66407
  57.27032, 129.19362
  57.29034, 140.14167
  57.31036, 139.47813
  57.33038, 135.58017
  57.35040, 138.16309
  57.37042, 139.02265
  57.39044, 136.32330
  57.41046, 133.32377
  57.43048, 139.13655
  57.45050, 131.52455
  57.47053, 139.10718
  57.49055, 138.35079
  57.51057, 135.55670
  57.53059, 148.43165
  57.55061, 146.01143
  57.57063, 141.27031
  57.59065, 132.17522
  57.61067, 131.74682
  57.63069, 133.11570
  57.65071, 145.27460
  57.67073, 143.14787
  57.69076, 137.94202
  57.71078, 144.43860
  57.73080, 130.90165
  57.75082, 132.66828
  57.77084, 141.39969
  57.79086, 133.50015
  57.81088, 135.94920
  57.83090, 134.34280
  57.85092, 135.34049
  57.87094, 133.52514
  57.89097, 135.37884
  57.91099, 130.08863
  57.93101, 133.37324
  57.95103, 134.05662
  57.97105, 131.13740
  57.99107, 135.23651
  58.01109, 135.77118
  58.03111, 129.38141
  58.05113, 146.20978
  58.07116, 136.94261
  58.09118, 134.73025
  58.11120, 131.44799
  58.13122, 139.82044
  58.15124, 135.05896
  58.17126, 128.23699
  58.19128, 134.68892
  58.21130, 138.29237
  58.23132, 131.17043
  58.25134, 131.87802
  58.27137, 140.96085
  58.29139, 130.79901
  58.31141, 133.85976
  58.33143, 139.12591
  58.35145, 136.15623
  58.37147, 131.66222
  58.39149, 129.82805
  58.41151, 136.11953
  58.43154, 130.71339
  58.45156, 130.69691
  58.47158, 124.55431
  58.49160, 132.13683
  58.51162, 134.86961
  58.53164, 134.59936
  58.55166, 138.43831
  58.57168, 134.47763
  58.59170, 137.09387
  58.61172, 130.79846
  58.63175, 125.50261
  58.65177, 127.13960
  58.67179, 131.89024
  58.69181, 135.74375
  58.71183, 135.73856
  58.73185, 138.33261
  58.75187, 140.51577
  58.77189, 131.63643
  58.79192, 127.93358
  58.81194, 133.44739
  58.83196, 129.15694
  58.85198, 131.26878
  58.87200, 130.77158
  58.89202, 136.23317
  58.91204, 131.78843
  58.93206, 129.88407
  58.95209, 135.48988
  58.97211, 142.95778
  58.99213, 134.22874
  59.01215, 131.23836
  59.03217, 127.99952
  59.05219, 131.96327
  59.07221, 132.43743
  59.09223, 130.89453
  59.11226, 132.59841
  59.13228, 135.09073
  59.15230, 134.82962
  59.17232, 132.19676
  59.19234, 131.49302
  59.21236, 128.68773
  59.23238, 126.61736
  59.25240, 132.88909
  59.27243, 130.08157
  59.29245, 137.19513
  59.31247, 130.25619
  59.33249, 135.37293
  59.35251, 142.13844
  59.37253, 131.19212
  59.39255, 131.55878
  59.41258, 125.46971
  59.43260, 132.47350
  59.45262, 135.36201
  59.47264, 133.73221
  59.49266, 131.44754
  59.51268, 132.78380
  59.53270, 124.90549
  59.55272, 132.24885
  59.57275, 131.54361
  59.59277, 127.73591
  59.61279, 128.72279
  59.63281, 127.63696
  59.65283, 135.14989
  59.67285, 137.21583
  59.69288, 127.80271
  59.71290, 133.54126
  59.73292, 137.95996
  59.75294, 130.75354
  59.77296, 135.00791
  59.79298, 123.89265
  59.81300, 123.66671
  59.83302, 127.29042
  59.85305, 132.06513
  59.87307, 130.43293
  59.89309, 119.00805
  59.91311, 129.39936
  59.93313, 132.24607
  59.95315, 128.84914
  59.97318, 134.24995
  59.99320, 136.68737
  60.01322, 134.66419
  60.03324, 130.69301
  60.05326, 129.39200
  60.07328, 120.51420
  60.09330, 133.20657
  60.11333, 128.02448
  60.13335, 129.80958
  60.15337, 135.84963
  60.17339, 133.23772
  60.19341, 127.06700
  60.21343, 133.07082
  60.23345, 132.51273
  60.25347, 122.18214
  60.27350, 130.06498
  60.29352, 118.83258
  60.31354, 123.81750
  60.33356, 127.07288
  60.35358, 128.20887
  60.37360, 125.90777
  60.39363, 125.88366
  60.41365, 132.82680
  60.43367, 126.36041
  60.45369, 123.96430
  60.47371, 130.29076
  60.49373, 132.99418
  60.51376, 126.97718
  60.53378, 125.53289
  60.55380, 123.89334
  60.57382, 127.14219
  60.59384, 124.87068
  60.61386, 129.08748
  60.63389, 134.50130
  60.65391, 129.44175
  60.67393, 129.63871
  60.69395, 125.20659
  60.71397, 127.42216
  60.73399, 123.45312
  60.75401, 120.77783
  60.77404, 126.52018
  60.79406, 130.13099
  60.81408, 124.92865
  60.83410, 126.91229
  60.85412, 128.68719
  60.87414, 123.85534
  60.89417, 122.06380
  60.91419, 123.54596
  60.93421, 127.19812
  60.95423, 121.70964
  60.97425, 128.56369
  60.99427, 126.98530
  61.01430, 124.96847
  61.03432, 128.03810
  61.05434, 136.92498
  61.07436, 123.82861
  61.09438, 117.61794
  61.11440, 120.56485
  61.13443, 127.31244
  61.15445, 133.18741
  61.17447, 132.92412
  61.19449, 128.99597
  61.21451, 124.71112
  61.23454, 126.11728
  61.25456, 129.01550
  61.27458, 126.82718
  61.29460, 128.35979
  61.31462, 123.56083
  61.33464, 123.88817
  61.35467, 129.68340
  61.37469, 125.33713
  61.39471, 124.65145
  61.41473, 130.16658
  61.43475, 127.99950
  61.45478, 129.79555
  61.47480, 129.43245
  61.49482, 126.94770
  61.51484, 124.49896
  61.53486, 126.01747
  61.55488, 123.38717
  61.57490, 123.99968
  61.59493, 131.75577
  61.61495, 128.02985
  61.63497, 130.49429
  61.65499, 126.32113
  61.67501, 132.49811
  61.69504, 128.01606
  61.71506, 130.38243
  61.73508, 124.73326
  61.75510, 129.23629
  61.77512, 129.06581
  61.79515, 129.28119
  61.81517, 129.00145
  61.83519, 130.96171
  61.85521, 125.37097
  61.87523, 128.38752
  61.89526, 129.15253
  61.91528, 124.51089
  61.93530, 120.60223
  61.95532, 128.13244
  61.97534, 130.51714
  61.99536, 128.12472
  62.01539, 122.64974
  62.03541, 131.23594
  62.05543, 126.63847
  62.07545, 131.35520
  62.09547, 126.00163
  62.11550, 130.04592
  62.13552, 121.51214
  62.15554, 117.34871
  62.17556, 128.65628
  62.19558, 115.33037
  62.21561, 128.21805
  62.23563, 124.60212
  62.25565, 123.73759
  62.27567, 123.65366
  62.29569, 126.90119
  62.31572, 126.98094
  62.33574, 119.72101
  62.35576, 120.24212
  62.37578, 123.02391
  62.39580, 122.77596
  62.41583, 120.18707
  62.43585, 124.15379
  62.45587, 131.16635
  62.47589, 119.56023
  62.49591, 121.91576
  62.51594, 122.13476
  62.53596, 124.31384
  62.55598, 125.75074
  62.57600, 130.88136
  62.59602, 127.19206
  62.61605, 125.99365
  62.63607, 127.06733
  62.65609, 125.53460
  62.67611, 126.07555
  62.69613, 130.35801
  62.71616, 127.33171
  62.73618, 119.79281
  62.75620, 129.26023
  62.77622, 119.92990
  62.79624, 126.17355
  62.81627, 121.83841
  62.83629, 123.22230
  62.85631, 118.55778
  62.87633, 120.98672
  62.89635, 127.27351
  62.91638, 121.85316
  62.93640, 125.99414
  62.95642, 129.11387
  62.97644, 121.92121
  62.99647, 128.65442
  63.01649, 122.03301
  63.03651, 124.25995
  63.05653, 118.80858
  63.07655, 124.63040
  63.09658, 119.12715
  63.11660, 125.88157
  63.13662, 125.84506
  63.15664, 130.08321
  63.17666, 121.06379
  63.19669, 118.78658
  63.21671, 123.53138
  63.23673, 124.58990
  63.25675, 119.91995
  63.27678, 125.81974
  63.29680, 117.06792
  63.31682, 123.39535
  63.33684, 124.15250
  63.35687, 126.00185
  63.37689, 128.30081
  63.39691, 127.41465
  63.41693, 123.57211
  63.43695, 123.71671
  63.45698, 123.05190
  63.47700, 126.78818
  63.49702, 127.68323
  63.51704, 117.95355
  63.53706, 128.21862
  63.55709, 122.12339
  63.57711, 125.02759
  63.59713, 132.09175
  63.61715, 121.10681
  63.63718, 121.36983
  63.65720, 124.89588
  63.67722, 130.44853
  63.69724, 116.56780
  63.71727, 122.57389
  63.73729, 129.74618
  63.75731, 124.09111
  63.77733, 124.84550
  63.79735, 125.90151
  63.81738, 126.26201
  63.83740, 119.95509
  63.85742, 128.18466
  63.87744, 126.88201
  63.89747, 117.48969
  63.91749, 123.66655
  63.93751, 126.81382
  63.95753, 125.00963
  63.97756, 128.18429
  63.99758, 128.34910
  64.01760, 122.17130
  64.03762, 124.24528
  64.05765, 126.11139
  64.07767, 127.38417
  64.09769, 124.17733
  64.11771, 124.18934
  64.13774, 142.30456
  64.15776, 125.47238
  64.17778, 137.15999
  64.19780, 133.78598
  64.21782, 132.19439
  64.23785, 132.26216
  64.25787, 132.81656
  64.27789, 133.32999
  64.29791, 139.57668
  64.31794, 146.74752
  64.33796, 145.79235
  64.35798, 157.90619
  64.37800, 151.15381
  64.39803, 154.00842
  64.41805, 159.06291
  64.43807, 167.80015
  64.45809, 179.31928
  64.47812, 180.69012
  64.49814, 192.27217
  64.51816, 196.79900
  64.53818, 212.27310
  64.55821, 231.84457
  64.57823, 233.88832
  64.59825, 254.96387
  64.61827, 270.45431
  64.63830, 299.46327
  64.65832, 348.52046
  64.67834, 392.51993
  64.69836, 440.57919
  64.71839, 537.29561
  64.73841, 617.60668
  64.75843, 675.58301
  64.77845, 716.96785
  64.79848, 727.57048
  64.81850, 703.56973
  64.83852, 673.60697
  64.85855, 613.09562
  64.87857, 568.15621
  64.89859, 524.22026
  64.91861, 490.50646
  64.93863, 462.35070
  64.95866, 449.24450
  64.97868, 431.11490
  64.99870, 422.96083
  65.01873, 384.44712
  65.03875, 328.37248
  65.05877, 295.77686
  65.07879, 250.45495
  65.09882, 215.17016
  65.11884, 194.44795
  65.13886, 181.08740
  65.15888, 171.85951
  65.17891, 160.28181
  65.19893, 155.29984
  65.21895, 150.19548
  65.23898, 145.13779
  65.25900, 144.98046
  65.27902, 136.61321
  65.29904, 134.66630
  65.31907, 131.07772
  65.33909, 132.25396
  65.35911, 129.80100
  65.37913, 126.87602
  65.39916, 127.39323
  65.41918, 126.40271
  65.43920, 124.55136
  65.45922, 132.58106
  65.47925, 122.32064
  65.49927, 122.72362
  65.51929, 112.08262
  65.53932, 117.65131
  65.55934, 119.14980
  65.57936, 122.90886
  65.59938, 119.23577
  65.61941, 121.04884
  65.63943, 119.69810
  65.65945, 121.09174
  65.67948, 121.57030
  65.69950, 120.98313
  65.71952, 117.93329
  65.73954, 118.26640
  65.75957, 122.98578
  65.77959, 119.59406
  65.79961, 116.31370
  65.81963, 122.61547
  65.83966, 116.91920
  65.85968, 120.79839
  65.87970, 115.50345
  65.89973, 119.83253
  65.91975, 120.41294
  65.93977, 118.25083
  65.95980, 121.04433
  65.97982, 114.71183
  65.99984, 120.62668
  66.01986, 118.97245
  66.03989, 116.30761
  66.05991, 112.97383
  66.07993, 113.20893
  66.09996, 114.63136
  66.11998, 127.67726
  66.14000, 117.94184
  66.16003, 115.56115
  66.18005, 117.64229
  66.20007, 114.26264
  66.22009, 114.36424
  66.24012, 117.62919
  66.26014, 118.41963
  66.28016, 116.55367
  66.30018, 121.96183
  66.32021, 119.44551
  66.34023, 118.90395
  66.36025, 113.64658
  66.38028, 115.85484
  66.40030, 113.92197
  66.42032, 114.24580
  66.44035, 114.25322
  66.46037, 118.88366
  66.48039, 126.28329
  66.50041, 118.18315
  66.52044, 113.68989
  66.54046, 117.05168
  66.56048, 112.78924
  66.58051, 116.23824
  66.60053, 121.37577
  66.62055, 112.82190
  66.64058, 120.35294
  66.66060, 119.92789
  66.68062, 126.45979
  66.70065, 120.74652
  66.72067, 112.77179
  66.74069, 114.02279
  66.76071, 114.02756
  66.78074, 113.32892
  66.80076, 114.65818
  66.82078, 117.11889
  66.84081, 115.42978
  66.86083, 111.66150
  66.88085, 104.78438
  66.90088, 111.35002
  66.92090, 118.95596
  66.94092, 112.38590
  66.96095, 116.13827
  66.98097, 116.12798
  67.00099, 117.96953
  67.02101, 112.96311
  67.04104, 115.69253
  67.06106, 116.87980
  67.08108, 115.62785
  67.10111, 117.26901
  67.12113, 116.88091
  67.14115, 112.41996
  67.16118, 113.48324
  67.18120, 112.59944
  67.20122, 117.79571
  67.22125, 116.43012
  67.24127, 113.91125
  67.26129, 108.75607
  67.28132, 109.73956
  67.30134, 113.54889
  67.32136, 114.50902
  67.34139, 119.71343
  67.36141, 118.83171
  67.38143, 116.39330
  67.40146, 122.65432
  67.42148, 118.81483
  67.44150, 115.70148
  67.46152, 115.77478
  67.48155, 114.24961
  67.50157, 116.68507
  67.52160, 117.70342
  67.54162, 108.31545
  67.56164, 110.36107
  67.58166, 109.13820
  67.60169, 111.28224
  67.62171, 106.35921
  67.64174, 109.05585
  67.66176, 112.27356
  67.68178, 110.31651
  67.70180, 110.81877
  67.72183, 108.98118
  67.74185, 112.18509
  67.76187, 109.72493
  67.78190, 113.99507
  67.80192, 110.89001
  67.82195, 116.69491
  67.84197, 109.82327
  67.86199, 110.82562
  67.88202, 113.08644
  67.90204, 111.06571
  67.92206, 120.36366
  67.94208, 112.32159
  67.96211, 117.43793
  67.98213, 116.97585
  68.00216, 117.56664
  68.02218, 110.49942
  68.04220, 111.00541
  68.06223, 111.93824
  68.08225, 114.21468
  68.10227, 112.24983
  68.12230, 111.46514
  68.14232, 119.26881
  68.16234, 118.66156
  68.18237, 114.11796
  68.20239, 118.70657
  68.22241, 114.41684
  68.24244, 115.52141
  68.26246, 111.81605
  68.28248, 116.14086
  68.30251, 114.67879
  68.32253, 119.00487
  68.34256, 116.75049
  68.36258, 113.51294
  68.38260, 106.95116
  68.40262, 107.30921
  68.42265, 114.49767
  68.44267, 113.65028
  68.46270, 105.80187
  68.48272, 116.56389
  68.50274, 110.31689
  68.52277, 116.78686
  68.54279, 114.91024
  68.56281, 112.54605
  68.58284, 109.55942
  68.60286, 109.75155
  68.62288, 111.72697
  68.64291, 116.77881
  68.66293, 122.07338
  68.68296, 109.49312
  68.70298, 119.10391
  68.72300, 109.42486
  68.74303, 113.68076
  68.76305, 106.30079
  68.78307, 112.71456
  68.80310, 112.25214
  68.82312, 113.28436
  68.84314, 117.91343
  68.86317, 111.19971
  68.88319, 111.54903
  68.90321, 110.83010
  68.92324, 111.47132
  68.94326, 110.92529
  68.96329, 116.16942
  68.98331, 108.25484
  69.00333, 114.29812
  69.02336, 119.23685
  69.04338, 112.15617
  69.06340, 115.67738
  69.08343, 117.08393
  69.10345, 116.96704
  69.12348, 112.46822
  69.14350, 116.10912
  69.16352, 111.97540
  69.18355, 109.55525
  69.20357, 110.01172
  69.22359, 105.91300
  69.24362, 109.19304
  69.26364, 115.68562
  69.28367, 106.44134
  69.30369, 108.91583
  69.32371, 115.49666
  69.34374, 109.08544
  69.36376, 102.71650
  69.38378, 112.42872
  69.40381, 114.13286
  69.42383, 106.10464
  69.44386, 114.53582
  69.46388, 110.31575
  69.48390, 114.67072
  69.50393, 118.30359
  69.52395, 115.10518
  69.54398, 108.31847
  69.56400, 110.99059
  69.58402, 105.20187
  69.60405, 107.22631
  69.62407, 119.76814
  69.64409, 113.09674
  69.66412, 108.61245
  69.68414, 106.51982
  69.70417, 115.45741
  69.72419, 118.04161
  69.74421, 114.12498
  69.76424, 113.51185
  69.78426, 114.25061
  69.80429, 105.63748
  69.82431, 108.51591
  69.84433, 111.99197
  69.86436, 111.66599
  69.88438, 110.84132
  69.90441, 107.83457
  69.92443, 107.79804
  69.94445, 103.31275
  69.96448, 108.96276
  69.98450, 109.77046
  70.00453, 108.47809
  70.02455, 105.54944
  70.04457, 109.66159
  70.06460, 108.12808
  70.08462, 106.82526
  70.10465, 108.72239
  70.12467, 105.96361
  70.14469, 108.97734
  70.16472, 107.02845
  70.18474, 108.17776
  70.20477, 105.79005
  70.22479, 107.83877
  70.24481, 112.69194
  70.26484, 105.00724
  70.28486, 114.69491
  70.30489, 115.04792
  70.32491, 112.39841
  70.34493, 112.46950
  70.36496, 111.38516
  70.38498, 107.14649
  70.40501, 109.09608
  70.42503, 110.24947
  70.44505, 109.50902
  70.46508, 109.06560
  70.48510, 114.09823
  70.50513, 111.59746
  70.52515, 111.71287
  70.54518, 106.06913
  70.56520, 111.01410
  70.58522, 110.52467
  70.60525, 112.95830
  70.62527, 107.59972
  70.64530, 106.17996
  70.66532, 109.16767
  70.68535, 105.65993
  70.70537, 108.37494
  70.72539, 120.51106
  70.74542, 117.33786
  70.76544, 112.23762
  70.78547, 114.06523
  70.80549, 111.66197
  70.82551, 114.12780
  70.84554, 113.48413
  70.86556, 111.29500
  70.88559, 117.05765
  70.90561, 115.34907
  70.92564, 110.81630
  70.94566, 109.18781
  70.96568, 107.02872
  70.98571, 108.31400
  71.00573, 107.56602
  71.02576, 106.33927
  71.04578, 116.89414
  71.06581, 113.92900
  71.08583, 112.02398
  71.10585, 113.67260
  71.12588, 116.21071
  71.14590, 112.25137
  71.16593, 107.60142
  71.18595, 108.79265
  71.20598, 113.33564
  71.22600, 115.84101
  71.24602, 106.49585
  71.26605, 108.19399
  71.28607, 109.86893
  71.30610, 108.80411
  71.32612, 109.78113
  71.34615, 108.76380
  71.36617, 107.44053
  71.38620, 109.56633
  71.40622, 117.01015
  71.42624, 104.02172
  71.44627, 110.38438
  71.46629, 111.04352
  71.48632, 107.66761
  71.50634, 112.03112
  71.52637, 108.19350
  71.54639, 111.18183
  71.56642, 109.05878
  71.58644, 106.34080
  71.60646, 107.43708
  71.62649, 104.95901
  71.64651, 112.91900
  71.66654, 114.60073
  71.68656, 109.90885
  71.70659, 110.63427
  71.72661, 110.62365
  71.74663, 110.32072
  71.76666, 111.43396
  71.78668, 113.01757
  71.80671, 109.87056
  71.82673, 110.79815
  71.84676, 107.94811
  71.86678, 116.52023
  71.88681, 111.50941
  71.90683, 113.43720
  71.92686, 111.83264
  71.94688, 105.59764
  71.96690, 107.33979
  71.98693, 102.68312
  72.00695, 105.13977
  72.02698, 106.20041
  72.04700, 111.09925
  72.06703, 108.22970
  72.08705, 104.69076
  72.10708, 108.20127
  72.12710, 110.86345
  72.14713, 109.99256
  72.16715, 111.87521
  72.18718, 108.54956
  72.20720, 111.00668
  72.22723, 111.44716
  72.24725, 112.58887
  72.26728, 112.43005
  72.28730, 113.15650
  72.30732, 105.65257
  72.32735, 111.36277
  72.34737, 115.17374
  72.36740, 119.45523
  72.38742, 113.18121
  72.40745, 109.39601
  72.42747, 107.65133
  72.44750, 111.90630
  72.46752, 112.28823
  72.48755, 108.91663
  72.50757, 112.30892
  72.52760, 102.47460
  72.54762, 110.84519
  72.56765, 107.30319
  72.58767, 105.68660
  72.60769, 118.44363
  72.62772, 118.31073
  72.64774, 109.58675
  72.66777, 108.27005
  72.68779, 110.37372
  72.70782, 114.35947
  72.72784, 111.00380
  72.74787, 111.50900
  72.76789, 107.13038
  72.78792, 108.22679
  72.80794, 109.68160
  72.82797, 113.45288
  72.84799, 110.62567
  72.86802, 108.87925
  72.88804, 101.95793
  72.90807, 106.36504
  72.92809, 109.04335
  72.94812, 108.69511
  72.96814, 103.86052
  72.98817, 113.79765
  73.00819, 110.67024
  73.02822, 117.29133
  73.04824, 110.66698
  73.06827, 109.95107
  73.08829, 112.56290
  73.10832, 107.52388
  73.12834, 109.06275
  73.14837, 107.87262
  73.16839, 114.38150
  73.18842, 108.52270
  73.20844, 113.77770
  73.22847, 112.74325
  73.24849, 118.15261
  73.26852, 111.90305
  73.28854, 110.08632
  73.30857, 117.43831
  73.32859, 113.26130
  73.34862, 107.37870
  73.36864, 112.57937
  73.38867, 107.06149
  73.40869, 109.06471
  73.42872, 105.19692
  73.44874, 116.43052
  73.46877, 115.30254
  73.48879, 112.07469
  73.50882, 112.30863
  73.52884, 113.63200
  73.54887, 115.47087
  73.56889, 108.83631
  73.58892, 109.65218
  73.60894, 111.26680
  73.62897, 116.14644
  73.64899, 115.08221
  73.66902, 111.83925
  73.68904, 114.96827
  73.70907, 115.97545
  73.72909, 114.56835
  73.74912, 116.71268
  73.76914, 111.17413
  73.78917, 121.29698
  73.80919, 118.65752
  73.82922, 118.76534
  73.84924, 122.33302
  73.86927, 113.48291
  73.88929, 113.86523
  73.90932, 119.19278
  73.92934, 116.67241
  73.94937, 116.40410
  73.96940, 123.66749
  73.98942, 125.81241
  74.00945, 131.30094
  74.02947, 125.35356
  74.04950, 134.52268
  74.06952, 128.19019
  74.08955, 128.91943
  74.10957, 141.06371
  74.12960, 145.75313
  74.14962, 143.20578
  74.16965, 151.56862
  74.18967, 156.85680
  74.20970, 165.56489
  74.22972, 174.84088
  74.24975, 182.61308
  74.26977, 198.43118
  74.28980, 210.03226
  74.30982, 238.82426
  74.32985, 263.80819
  74.34988, 317.51841
  74.36990, 395.16546
  74.38993, 479.16275
  74.40995, 591.91074
  74.42998, 706.81168
  74.45000, 797.39082
  74.47003, 892.91177
  74.49005, 900.90744
  74.51008, 868.66293
  74.53010, 799.42315
  74.55013, 675.90911
  74.57016, 587.15324
  74.59018, 502.15375
  74.61021, 466.17650
  74.63023, 454.13461
  74.65026, 473.56862
  74.67028, 494.93575
  74.69031, 501.46337
  74.71033, 507.64079
  74.73036, 490.49274
  74.75038, 432.61671
  74.77041, 361.07143
  74.79043, 305.25645
  74.81046, 256.22481
  74.83049, 213.59738
  74.85051, 174.38700
  74.87054, 165.80214
  74.89056, 166.40105
  74.91059, 151.38320
  74.93061, 145.35055
  74.95064, 141.34512
  74.97066, 121.65980
  74.99069, 124.81887
  75.01072, 120.52682
  75.03074, 124.74431
  75.05077, 117.66702
  75.07079, 121.00787
  75.09082, 113.98503
  75.11084, 115.09252
  75.13087, 117.86279
  75.15090, 123.30700
  75.17092, 114.71888
  75.19095, 121.81100
  75.21097, 118.38109
  75.23100, 117.89149
  75.25102, 119.87362
  75.27105, 117.10148
  75.29107, 104.66636
  75.31110, 107.78762
  75.33113, 108.47660
  75.35115, 114.95193
  75.37118, 109.42942
  75.39120, 107.28659
  75.41123, 106.67178
  75.43125, 112.05030
  75.45128, 108.54839
  75.47131, 116.70708
  75.49133, 113.72219
  75.51136, 107.86378
  75.53138, 110.75140
  75.55141, 104.87632
  75.57143, 107.31018
  75.59146, 108.09771
  75.61149, 108.47768
  75.63151, 103.15882
  75.65154, 103.18732
  75.67156, 103.11327
  75.69159, 112.39849
  75.71161, 107.47706
  75.73164, 111.69632
  75.75167, 106.50104
  75.77169, 109.28743
  75.79172, 102.77936
  75.81174, 103.12856
  75.83177, 107.19216
  75.85180, 111.23221
  75.87182, 103.26235
  75.89185, 106.83377
  75.91187, 104.85369
  75.93190, 107.46649
  75.95193, 106.48532
  75.97195, 109.84129
  75.99198, 112.47134
  76.01200, 114.02639
  76.03203, 110.42853
  76.05205, 100.98823
  76.07208, 101.41714
  76.09211, 108.25769
  76.11213, 107.94972
  76.13216, 107.75226
  76.15218, 109.94048
  76.17221, 114.31184
  76.19224, 113.90546
  76.21226, 103.69094
  76.23229, 106.57142
  76.25232, 103.47611
  76.27234, 101.37312
  76.29237, 104.56451
  76.31239, 109.77511
  76.33242, 102.57934
  76.35244, 102.93795
  76.37247, 116.17503
  76.39250, 104.80441
  76.41252, 101.57250
  76.43255, 104.09062
  76.45258, 103.07390
  76.47260, 108.37130
  76.49263, 108.76829
  76.51265, 104.10889
  76.53268, 104.80736
  76.55271, 106.65437
  76.57273, 103.84625
  76.59276, 104.56719
  76.61278, 104.72169
  76.63281, 104.32508
  76.65284, 102.82617
  76.67286, 106.44349
  76.69289, 104.01201
  76.71292, 106.49151
  76.73294, 104.91026
  76.75297, 109.31657
  76.77299, 104.02424
  76.79302, 108.04700
  76.81305, 109.91845
  76.83307, 103.08804
  76.85310, 101.79933
  76.87312,  97.98438
  76.89315, 105.45782
  76.91318, 105.94389
  76.93320, 106.55455
  76.95323, 110.91586
  76.97326, 104.52265
  76.99328, 101.45899
  77.01331, 105.45012
  77.03333, 107.83857
  77.05336, 101.26153
  77.07339, 102.06915
  77.09341,  99.99148
  77.11344, 102.08726
  77.13347, 103.71484
  77.15349,  96.53821
  77.17352,  98.55823
  77.19355, 107.12567
  77.21357, 103.32195
  77.23360, 103.34424
  77.25362, 106.45235
  77.27365, 104.65045
  77.29368, 104.71886
  77.31370, 102.36421
  77.33373, 104.23532
  77.35376, 100.63621
  77.37378, 106.09028
  77.39381, 104.06944
  77.41384, 104.03031
  77.43386, 102.94607
  77.45389, 103.45034
  77.47391, 106.11289
  77.49394, 109.11761
  77.51397, 105.29488
  77.53399, 103.87459
  77.55402, 108.31444
  77.57405, 107.18672
  77.59407, 107.47730
  77.61410, 104.98771
  77.63413, 101.33401
  77.65415, 103.31718
  77.67418, 104.82081
  77.69421, 103.27756
  77.71423, 105.21723
  77.73426, 102.88103
  77.75429, 103.96038
  77.77431, 100.01123
  77.79434, 103.85472
  77.81437, 100.77847
  77.83439, 100.59230
  77.85442, 104.75352
  77.87445, 112.54058
  77.89447, 107.91125
  77.91450,  98.73535
  77.93453, 103.37317
  77.95455, 102.96543
  77.97458, 111.64411
  77.99461, 105.69327
  78.01463, 102.83650
  78.03466, 106.78279
  78.05469, 100.88203
  78.07471, 103.41267
  78.09474, 106.18434
  78.11476, 106.92868
  78.13479, 101.88681
  78.15482, 106.58990
  78.17485, 107.85102
  78.19487,  99.18244
  78.21490,  98.92920
  78.23493, 104.69716
  78.25495, 103.07411
  78.27498, 105.65350
  78.29501, 102.56808
  78.31503, 109.23729
  78.33506, 102.14043
  78.35509, 105.66313
  78.37511,  97.65357
  78.39514,  94.98808
  78.41517, 103.51964
  78.43519, 106.20720
  78.45522, 103.96079
  78.47525, 104.21525
  78.49527, 103.13619
  78.51530,  99.04841
  78.53533, 102.50136
  78.55535, 103.64612
  78.57538,  99.56674
  78.59541, 102.95124
  78.61544, 104.69128
  78.63546, 102.75931
  78.65549, 103.48984
  78.67552, 102.52577
  78.69554,  99.62618
  78.71557, 101.66984
  78.73560,  98.56631
  78.75562,  97.94370
  78.77565,  95.27722
  78.79568, 100.29672
  78.81570, 105.85978
  78.83573, 107.83958
  78.85576, 108.91179
  78.87578, 104.00709
  78.89581, 104.62485
  78.91584, 108.32241
  78.93587, 104.86036
  78.95589, 101.39973
  78.97592, 105.63746
  78.99595, 108.26698
  79.01597, 100.98323
  79.03600, 100.87034
  79.05603, 101.89816
  79.07606,  97.90706
  79.09608,  97.42711
  79.11611, 104.58877
  79.13614, 101.67796
  79.15616, 106.01488
  79.17619, 104.53455
  79.19622, 105.57083
  79.21625, 102.37846
  79.23627, 104.96606
  79.25630, 106.36960
  79.27633, 107.35794
  79.29635, 101.77868
  79.31638, 102.37822
  79.33641,  97.29775
  79.35643, 105.24665
  79.37646, 106.82558
  79.39649, 105.11085
  79.41652, 101.74734
  79.43654, 105.69529
  79.45657, 105.02232
  79.47660, 105.40553
  79.49663,  97.78570
  79.51665, 100.95691
  79.53668, 106.79397
  79.55671, 104.22598
  79.57673, 106.59529
  79.59676, 103.13384
  79.61679, 101.69863
  79.63682, 105.46913
  79.65684, 104.84909
  79.67687,  99.44270
  79.69690,  97.58416
  79.71693,  99.48410
  79.73695, 106.79515
  79.75698, 108.16301
  79.77701, 105.20919
  79.79703, 104.13429
  79.81706, 106.67034
  79.83709, 102.71565
  79.85712, 103.00068
  79.87714, 110.73396
  79.89717, 102.82398
  79.91720, 108.52064
  79.93723, 105.19632
  79.95725, 103.80020
  79.97728, 105.19213
  79.99731, 107.31727
  80.01733, 102.43506
  80.03736, 101.85729
  80.05739, 105.41973
  80.07742, 107.14922
  80.09744, 104.56912
  80.11747, 100.07140
  80.13750, 104.25004
  80.15753, 104.81185
  80.17756, 100.49382
  80.19758, 112.00233
  80.21761, 107.47641
  80.23764, 108.13565
  80.25767, 104.36082
  80.27769, 104.75093
  80.29772, 105.72726
  80.31775, 105.82296
  80.33778, 103.36860
  80.35780, 106.70923
  80.37783, 109.75275
  80.39786, 105.23985
  80.41788, 106.87646
  80.43791, 109.98663
  80.45794, 100.63353
  80.47797, 102.92107
  80.49800, 105.86232
  80.51802, 105.18660
  80.53805, 104.46654
  80.55808, 100.59584
  80.57811, 103.14512
  80.59814, 102.36467
  80.61816, 100.22105
  80.63819, 102.25462
  80.65822, 104.17944
  80.67825, 104.60394
  80.69827, 106.09299
  80.71830,  99.88966
  80.73833, 102.97466
  80.75836,  99.05531
  80.77838, 101.57236
  80.79841, 105.81798
  80.81844, 101.11260
  80.83847, 104.95758
  80.85850, 108.54964
  80.87852, 104.36182
  80.89855, 103.37397
  80.91858, 111.04693
  80.93861, 102.67018
  80.95863, 105.92590
  80.97866, 103.17073
  80.99869, 103.18815
  81.01872, 101.60843
  81.03874, 111.19418
  81.05877, 109.74365
  81.07880, 102.94762
  81.09883, 101.67003
  81.11886, 108.35342
  81.13888, 104.87619
  81.15891, 104.55005
  81.17894, 111.20735
  81.19897, 110.21963
  81.21900, 107.87637
  81.23902, 108.86576
  81.25905, 110.44575
  81.27908, 104.54105
  81.29911, 107.60325
  81.31914, 103.86801
  81.33916, 110.09356
  81.35919, 118.13606
  81.37922, 114.87150
  81.39925, 113.62564
  81.41928, 110.71251
  81.43930, 106.30810
  81.45933, 115.18110
  81.47936, 114.82605
  81.49939, 111.74042
  81.51942, 116.54537
  81.53944, 113.52315
  81.55947, 122.12824
  81.57950, 123.10635
  81.59953, 130.14509
  81.61956, 125.37552
  81.63958, 122.36802
  81.65961, 138.76765
  81.67964, 137.31423
  81.69967, 146.34934
  81.71970, 142.14022
  81.73972, 150.14118
  81.75975, 161.02725
  81.77978, 170.04134
  81.79981, 163.25124
  81.81984, 181.30137
  81.83987, 198.17008
  81.85989, 205.71202
  81.87992, 225.51758
  81.89995, 251.62221
  81.91998, 275.57991
  81.94001, 323.88781
  81.96003, 362.76494
  81.98006, 422.88417
  82.00009, 486.89766
  82.02012, 557.54940
  82.04015, 620.90397
  82.06018, 677.25200
  82.08020, 677.34944
  82.10023, 664.68842
  82.12026, 618.81840
  82.14029, 554.62570
  82.16032, 482.97813
  82.18035, 405.69706
  82.20037, 377.45020
  82.22040, 361.95616
  82.24043, 357.04836
  82.26046, 368.14352
  82.28049, 385.02879
  82.30052, 392.70692
  82.32054, 395.92255
  82.34057, 379.57275
  82.36060, 362.16999
  82.38063, 332.19917
  82.40066, 283.79806
  82.42069, 246.02935
  82.44072, 195.63072
  82.46074, 172.29754
  82.48077, 157.36174
  82.50080, 148.76358
  82.52083, 140.99478
  82.54086, 135.07767
  82.56089, 128.17093
  82.58091, 122.38217
  82.60094, 119.47072
  82.62097, 117.26575
  82.64100, 115.27924
  82.66103, 118.73727
  82.68106, 115.48152
  82.70109, 114.48503
  82.72112, 108.32121
  82.74114, 111.29258
  82.76117, 109.40081
  82.78120, 112.53345
  82.80123, 107.59611
  82.82126, 112.25789
  82.84129, 113.10194
  82.86131, 107.09965
  82.88134, 106.00120
  82.90137, 101.97356
  82.92140, 101.48781
  82.94143, 105.46426
  82.96146, 103.02438
  82.98149, 106.17753
  83.00152, 107.70614
  83.02154, 100.24140
  83.04157, 102.34872
  83.06160, 107.70459
  83.08163, 103.66494
  83.10166, 107.86679
  83.12169,  97.65950
  83.14172, 104.91020
  83.16175,  99.82211
  83.18177, 102.14414
  83.20180, 103.06095
  83.22183,  99.80925
  83.24186, 105.95237
  83.26189, 100.04990
  83.28192,  98.87617
  83.30195, 100.26741
  83.32197,  97.64175
  83.34200, 103.49432
  83.36203,  98.55966
  83.38206, 100.76232
  83.40209, 102.45317
  83.42212, 103.94099
  83.44215, 106.98717
  83.46218, 102.00014
  83.48221,  97.86433
  83.50224, 100.77112
  83.52226, 100.05144
  83.54229,  97.71237
  83.56232, 110.51716
  83.58235, 107.14957
  83.60238, 101.43412
  83.62241, 100.38908
  83.64244, 104.54627
  83.66247, 103.39876
  83.68250, 101.01294
  83.70252, 104.84638
  83.72255,  98.53055
  83.74258,  99.54243
  83.76261,  94.86996
  83.78264, 100.64428
  83.80267, 100.37281
  83.82270, 103.86643
  83.84273, 100.61828
  83.86276, 101.17272
  83.88279, 102.04380
  83.90282, 101.90642
  83.92284, 101.65725
  83.94287, 103.67657
  83.96290, 103.76042
  83.98293,  99.33397
  84.00296,  97.82420
  84.02299,  96.10621
  84.04302, 104.87450
  84.06305,  99.97947
  84.08308,  99.48291
  84.10311, 100.22421
  84.12314, 100.35305
  84.14316, 104.14507
  84.16319, 100.24064
  84.18322,  92.57240
  84.20325,  98.23730
  84.22328, 100.91229
  84.24331, 101.02263
  84.26334,  98.58748
  84.28337, 100.50404
  84.30340,  94.19951
  84.32343,  93.16614
  84.34346, 100.34257
  84.36349,  99.57416
  84.38352, 101.60239
  84.40355,  96.43452
  84.42357,  96.40288
  84.44360, 102.67780
  84.46363,  96.66859
  84.48366,  94.84326
  84.50369, 100.47462
  84.52372, 100.27457
  84.54375,  99.85165
  84.56378,  96.74001
  84.58381,  97.89229
  84.60384, 103.04515
  84.62387,  99.38371
  84.64390,  96.53797
  84.66393, 102.76428
  84.68396, 100.52562
  84.70399, 100.71211
  84.72402, 102.60646
  84.74405,  97.82311
  84.76408,  95.30909
  84.78411,  95.70534
  84.80413, 101.32211
  84.82416,  99.59524
  84.84419, 100.72996
  84.86422,  96.58731
  84.88425,  99.46171
  84.90428, 100.13271
  84.92431, 100.62833
  84.94434,  97.90923
  84.96437,  94.79173
  84.98440,  97.75247
  85.00443,  99.88957
  85.02446, 100.76123
  85.04449,  94.44144
  85.06452,  98.51107
  85.08455,  96.25159
  85.10458, 104.87025
  85.12461,  99.80788
  85.14464,  97.23775
  85.16467,  99.24416
  85.18470,  99.65236
  85.20473, 100.16223
  85.22476,  99.12898
  85.24479,  94.84002
  85.26482,  96.12324
  85.28484,  96.91425
  85.30487,  94.69657
  85.32490,  98.90448
  85.34493,  97.45557
  85.36496,  98.37788
  85.38499,  95.62755
  85.40502, 103.18291
  85.42505,  93.55175
  85.44508, 100.83022
  85.46511,  94.89085
  85.48514,  96.79433
  85.50517,  99.56079
  85.52520, 103.95423
  85.54523,  93.91483
  85.56526,  94.56847
  85.58529,  96.44659
  85.60532,  99.32196
  85.62535, 101.35779
  85.64538, 100.96489
  85.66541, 101.18884
  85.68544, 100.87467
  85.70547, 103.15626
  85.72550, 105.20013
  85.74553,  99.64771
  85.76556,  93.85106
  85.78559,  96.17012
  85.80562,  98.20990
  85.82565,  97.27516
  85.84568,  94.48883
  85.86571,  95.23696
  85.88574,  95.75431
  85.90577,  94.75788
  85.92580, 102.29010
  85.94583,  88.93406
  85.96586, 101.30877
  85.98589, 102.95357
  86.00592,  97.75850
  86.02595,  98.60355
  86.04598, 101.42527
  86.06601,  98.10542
  86.08604,  99.19512
  86.10607, 102.11328
  86.12610, 101.37694
  86.14613, 100.05950
  86.16616,  98.26112
  86.18619,  98.15535
  86.20622,  97.06868
  86.22625,  99.16285
  86.24628, 102.83295
  86.26631,  97.90794
  86.28634, 101.74221
  86.30637,  95.80052
  86.32640,  96.74222
  86.34643, 103.16147
  86.36647,  98.10319
  86.38650,  99.44657
  86.40653, 100.31710
  86.42656, 102.49991
  86.44659,  97.42423
  86.46662, 108.40696
  86.48665,  98.10592
  86.50668,  95.24389
  86.52671,  91.71065
  86.54674,  98.43195
  86.56677, 101.25022
  86.58680,  95.97890
  86.60683,  98.26537
  86.62686,  97.00115
  86.64689,  98.56993
  86.66692,  94.92912
  86.68695,  99.08407
  86.70698,  93.51332
  86.72701,  98.67526
  86.74704,  99.58915
  86.76707,  99.84476
  86.78710, 100.94387
  86.80713,  98.96661
  86.82716,  94.58013
  86.84719, 103.68632
  86.86723,  95.24353
  86.88725,  96.57446
  86.90729,  92.95242
  86.92732,  92.69968
  86.94735,  94.99229
  86.96738,  90.34163
  86.98741,  95.86017
  87.00744,  96.65090
  87.02747,  97.78111
  87.04750,  97.99474
  87.06753,  99.74706
  87.08756, 102.56805
  87.10759,  95.14367
  87.12762,  93.64881
  87.14765, 101.86082
  87.16768, 101.02623
  87.18771,  99.38846
  87.20774,  99.47135
  87.22778,  95.06537
  87.24781, 102.48210
  87.26784,  96.20861
  87.28787,  98.68540
  87.30790, 100.82583
  87.32793, 101.11184
  87.34796,  96.03590
  87.36799,  97.76700
  87.38802,  96.29569
  87.40805,  97.50591
  87.42808,  97.04274
  87.44811,  96.26524
  87.46815, 101.26471
  87.48818,  97.62693
  87.50821,  95.99094
  87.52824,  94.55722
  87.54827,  94.62866
  87.56830, 102.68986
  87.58833,  95.83582
  87.60836, 105.18229
  87.62839,  99.76875
  87.64842,  98.95973
  87.66845,  95.42894
  87.68848,  95.56133
  87.70852,  92.74620
  87.72855,  95.36305
  87.74858,  93.35284
  87.76861,  94.59497
  87.78864,  99.30091
  87.80867,  92.66763
  87.82870,  99.78591
  87.84873, 105.58941
  87.86876,  99.06910
  87.88879,  96.02483
  87.90883,  98.42448
  87.92886, 102.43296
  87.94889,  98.70753
  87.96892, 101.63329
  87.98895, 100.78967
  88.00898, 103.63968
  88.02901,  99.40064
  88.04904,  97.10876
  88.06907, 103.03225
  88.08910, 104.83859
  88.10914, 102.79056
  88.12917,  98.62346
  88.14920,  96.36614
  88.16923,  98.13723
  88.18926,  96.09033
  88.20929,  99.57273
  88.22932,  93.97721
  88.24935,  90.95337
  88.26939,  96.65741
  88.28942,  99.08040
  88.30945,  99.59032
  88.32948,  97.75373
  88.34951,  96.43183
  88.36954,  99.36998
  88.38957,  92.58848
  88.40960,  93.12001
  88.42964,  98.34328
  88.44967, 101.04893
  88.46970,  99.50030
  88.48973,  96.99403
  88.50976,  99.76980
  88.52979,  95.19324
  88.54982,  97.01712
  88.56986,  96.05465
  88.58989,  97.89467
  88.60992,  99.05415
  88.62995,  94.10340
  88.64998,  92.28060
  88.67001, 101.10766
  88.69005,  96.53105
  88.71008,  95.08786
  88.73011,  98.04828
  88.75014,  97.79245
  88.77017, 101.72027
  88.79020,  97.50401
  88.81023, 102.68247
  88.83027, 106.71923
  88.85030, 101.63770
  88.87033, 100.10724
  88.89036,  97.96005
  88.91039,  94.14307
  88.93042,  94.16089
  88.95045, 100.48612
  88.97049,  96.96592
  88.99052,  96.51837
  89.01055,  99.71005
  89.03058, 100.57494
  89.05061, 100.23318
  89.07065, 103.66973
  89.09068,  97.37473
  89.11071, 100.49300
  89.13074, 106.35418
  89.15077, 100.16044
  89.17080, 102.73801
  89.19083, 100.74480
  89.21087,  91.99158
  89.23090,  98.11422
  89.25093, 101.13159
  89.27096, 102.43380
  89.29099,  95.47397
  89.31103,  95.60130
  89.33106,  96.70311
  89.35109, 102.47553
  89.37112,  96.44507
  89.39115,  98.57660
  89.41118, 103.58360
  89.43122,  99.62626
  89.45125, 101.63148
  89.47128,  94.73133
  89.49131,  99.74276
  89.51134, 103.37340
  89.53138,  93.64157
  89.55141, 100.12174
  89.57144, 103.57719
  89.59147,  99.68502
  89.61150, 100.69401
  89.63154, 100.21994
  89.65157, 102.79258
  89.67160, 110.48897
  89.69163, 108.65228
  89.71166, 103.16400
  89.73170, 108.43905
  89.75173, 103.94845
  89.77176, 111.54143
  89.79179, 115.22128
  89.81182, 114.47863
  89.83186, 113.52482
  89.85189, 112.74684
  89.87192, 124.40920
  89.89195, 122.73202
  89.91198, 118.79600
  89.93202, 122.92330
  89.95205, 125.52082
  89.97208, 126.83749
  89.99211, 125.57528
  90.01214, 125.75870
  90.03218, 129.32875
  90.05221, 140.37875
  90.07224, 137.53905
  90.09227, 140.88904
  90.11231, 152.69007
  90.13234, 165.87439
  90.15237, 171.86576
  90.17240, 176.58031
  90.19244, 185.37020
  90.21247, 208.34668
  90.23250, 222.45480
  90.25253, 253.24126
  90.27256, 276.03064
  90.29260, 309.40225
  90.31263, 347.45293
  90.33266, 411.16450
  90.35269, 467.87695
  90.37273, 504.18590
  90.39276, 533.21291
  90.41279, 548.39250
  90.43282, 549.72131
  90.45285, 510.09349
  90.47289, 458.73296
  90.49292, 424.07230
  90.51295, 373.11817
  90.53299, 342.50824
  90.55302, 308.43387
  90.57305, 287.29967
  90.59308, 278.47693
  90.61312, 274.25892
  90.63315, 292.14779
  90.65318, 309.44848
  90.67321, 320.43684
  90.69325, 317.23476
  90.71328, 304.03438
  90.73331, 309.23482
  90.75334, 281.29815
  90.77338, 258.48570
  90.79341, 227.25463
  90.81344, 198.65169
  90.83347, 180.47558
  90.85351, 157.10158
  90.87354, 143.60608
  90.89357, 134.42988
  90.91361, 128.42694
  90.93364, 120.35254
  90.95367, 120.11725
  90.97370, 118.58601
  90.99374, 112.13184
  91.01377, 109.14088
  91.03380, 108.12404
  91.05383, 105.86919
  91.07387, 100.39818
  91.09390, 104.11963
  91.11393, 100.42726
  91.13397, 103.27028
  91.15400,  99.52305
  91.17403,  99.10017
  91.19406, 103.76235
  91.21410, 102.16887
  91.23413,  94.31238
  91.25416,  93.21252
  91.27420,  94.48026
  91.29423,  97.52665
  91.31426,  92.41669
  91.33429,  98.26340
  91.35433, 101.17066
  91.37436, 102.57116
  91.39439, 101.22746
  91.41443,  95.31324
  91.43446,  99.60643
  91.45449, 102.96562
  91.47452,  96.99661
  91.49456, 100.40303
  91.51459,  93.30190
  91.53462,  96.16665
  91.55466, 100.14254
  91.57469,  97.57558
  91.59472,  97.88865
  91.61476, 101.80861
  91.63479,  96.12989
  91.65482,  96.16963
  91.67486,  91.69367
  91.69489,  90.80642
  91.71492,  91.02630
  91.73496,  93.58949
  91.75499,  94.81025
  91.77502,  94.56058
  91.79506,  90.44958
  91.81509,  92.32873
  91.83512,  94.83633
  91.85516,  95.77266
  91.87519,  99.88901
  91.89522,  90.58769
  91.91525,  96.54222
  91.93529,  95.99452
  91.95532,  95.83683
  91.97536,  96.94266
  91.99539,  93.50822
  92.01542,  91.89244
  92.03546,  92.79222
  92.05549,  86.53767
  92.07552,  93.81952
  92.09555,  92.96477
  92.11559,  92.35955
  92.13562,  96.82600
  92.15566,  90.62331
  92.17569,  91.62759
  92.19572,  96.15148
  92.21576,  92.08657
  92.23579,  94.81416
  92.25582,  93.50566
  92.27586,  95.82921
  92.29589,  94.06116
  92.31592,  90.27352
  92.33596,  93.40324
  92.35599,  94.35062
  92.37602,  94.12846
  92.39606,  93.42678
  92.41609,  88.47243
  92.43613,  91.62670
  92.45616,  93.05828
  92.47619,  89.29626
  92.49623,  95.86345
  92.51626,  97.59779
  92.53629,  93.33884
  92.55633,  95.54565
  92.57636,  92.51985
  92.59639,  92.05368
  92.61643,  90.16586
  92.63646, 100.55898
  92.65650,  98.69649
  92.67653,  90.09432
  92.69656,  90.68837
  92.71660,  91.39085
  92.73663,  88.33853
  92.75666,  90.07805
  92.77670,  85.44527
  92.79673,  92.40590
  92.81677,  93.03176
  92.83680,  87.90888
  92.85683,  90.39043
  92.87687,  90.47484
  92.89690,  94.37466
  92.91693,  96.35879
  92.93697,  95.18004
  92.95700,  94.09683
  92.97704,  94.88368
  92.99707,  87.41784
  93.01710,  91.94827
  93.03714,  91.77800
  93.05717,  92.92779
  93.07721,  90.45593
  93.09724,  91.62824
  93.11727,  94.15689
  93.13731,  90.72956
  93.15734,  90.12784
  93.17738,  91.62443
  93.19741,  84.61677
  93.21744,  93.35468
  93.23748,  92.79739
  93.25751,  98.42589
  93.27755,  93.42603
  93.29758,  90.72964
  93.31762,  99.69886
  93.33765,  90.55410
  93.35768,  92.28209
  93.37772,  89.10373
  93.39775,  91.99235
  93.41779,  98.60641
  93.43782,  94.63489
  93.45785,  88.05130
  93.47789,  92.58550
  93.49792,  92.91498
  93.51796,  90.49017
  93.53799,  92.37734
  93.55803,  93.21687
  93.57806,  89.73747
  93.59810,  93.80499
  93.61813,  98.83875
  93.63816,  93.40698
  93.65820,  98.60334
  93.67823,  95.09603
  93.69827,  85.77094
  93.71830,  90.06347
  93.73834,  95.14329
  93.75837,  92.12558
  93.77841,  95.29967
  93.79844,  89.74010
  93.81847,  89.83981
  93.83851,  97.01792
  93.85854,  93.93181
  93.87858,  92.11478
  93.89861,  87.13149
  93.91865,  90.54117
  93.93868,  91.33292
  93.95872,  94.95295
  93.97875,  95.96898
  93.99878,  91.12781
  94.01882,  93.24235
  94.03885,  92.82170
  94.05889,  86.18695
  94.07892,  92.70356
  94.09896,  92.40602
  94.11899,  88.06980
  94.13903,  85.56502
  94.15906,  91.49555
  94.17910,  93.98925
  94.19913,  90.76617
  94.21916,  94.19840
  94.23920,  94.56035
  94.25923,  91.80433
  94.27927,  89.82563
  94.29931,  96.52031
  94.31934,  87.11096
  94.33937,  89.10324
  94.35941,  96.02618
  94.37944,  90.29109
  94.39948,  89.38655
  94.41951,  93.90137
  94.43955,  93.32694
  94.45958,  90.83855
  94.47962,  91.10221
  94.49965,  91.08960
  94.51969,  88.36499
  94.53972,  88.15950
  94.55976,  87.32387
  94.57979,  95.84078
  94.59983,  92.31354
  94.61986,  88.77470
  94.63990,  92.01094
  94.65993,  84.19738
  94.67997,  86.21617
  94.70000,  91.55032
  94.72004,  95.54987
  94.74007,  90.67617
  94.76011,  89.84302
  94.78014,  92.21670
  94.80018,  94.88710
  94.82021,  94.20870
  94.84025,  85.40354
  94.86028,  89.92382
  94.88032,  87.26332
  94.90035,  83.70803
  94.92039,  86.29041
  94.94043,  86.95108
  94.96046,  90.44766
  94.98049,  88.07448
  95.00053,  91.92002
  95.02057,  94.31862
  95.04060,  86.60147
  95.06064,  90.42277
  95.08067,  92.51315
  95.10071,  93.08230
  95.12074,  97.59824
  95.14078,  94.92813
  95.16081,  94.42779
  95.18085,  96.30686
  95.20088,  94.11639
  95.22092,  93.39912
  95.24095,  93.09185
  95.26099,  94.05607
  95.28103,  94.07970
  95.30106,  91.66628
  95.32110,  95.76735
  95.34113,  94.19237
  95.36117,  98.57409
  95.38120,  98.02457
  95.40124,  96.79927
  95.42127,  96.54546
  95.44131,  99.17218
  95.46135, 106.49478
  95.48138, 105.31566
  95.50142, 109.00903
  95.52145, 111.65781
  95.54149, 125.55814
  95.56152, 132.77860
  95.58156, 139.18405
  95.60159, 151.03786
  95.62163, 168.20088
  95.64166, 161.15332
  95.66170, 165.65732
  95.68174, 171.77589
  95.70177, 165.43229
  95.72181, 154.03277
  95.74184, 142.07000
  95.76188, 132.88606
  95.78192, 121.52789
  95.80195, 120.13419
  95.82199, 109.83603
  95.84202, 112.60764
  95.86206, 112.73424
  95.88209, 123.57787
  95.90213, 121.94041
  95.92217, 121.28962
  95.94220, 123.63939
  95.96224, 128.40487
  95.98227, 131.84188
  96.00231, 120.87503
  96.02235, 117.41423
  96.04238, 122.60869
  96.06242, 111.58763
  96.08245, 103.73341
  96.10249,  97.09520
  96.12253,  99.92769
  96.14256,  89.63871
  96.16260,  97.00171
  96.18263,  94.31603
  96.20267,  88.93295
  96.22271,  90.59726
  96.24274,  92.99198
  96.26278,  89.43715
  96.28282,  93.47917
  96.30285,  91.79606
  96.32289,  95.98461
  96.34292,  88.21325
  96.36296,  88.39485
  96.38299,  87.19363
  96.40303,  92.04838
  96.42307,  89.75598
  96.44310,  92.84806
  96.46314,  92.47507
  96.48318,  92.59566
  96.50321,  94.43966
  96.52325,  91.80184
  96.54329,  93.25801
  96.56332,  93.67809
  96.58336,  87.21271
  96.60339,  89.49757
  96.62343,  91.02697
  96.64347,  89.43264
  96.66350,  87.53854
  96.68354,  91.78669
  96.70358,  87.55965
  96.72361,  88.83082
  96.74365,  92.00158
  96.76369,  90.22891
  96.78372,  86.98430
  96.80376,  84.81872
  96.82379,  85.65776
  96.84383,  88.62730
  96.86387,  88.93274
  96.88391,  85.34591
  96.90394,  86.43159
  96.92398,  91.25322
  96.94402,  87.64571
  96.96405,  89.58611
  96.98409,  89.38562
  97.00413,  87.52219
  97.02416,  80.31280
  97.04420,  91.41534
  97.06423,  91.82778
  97.08427,  83.98822
  97.10431,  91.68773
  97.12435,  92.85923
  97.14438,  91.23657
  97.16442,  91.61610
  97.18446,  99.05486
  97.20449,  85.81948
  97.22453,  88.64805
  97.24457,  87.02485
  97.26460,  83.82721
  97.28464,  88.32636
  97.30468,  89.00674
  97.32471,  90.46537
  97.34475,  85.81776
  97.36479,  90.68088
  97.38482,  87.94587
  97.40486,  92.74451
  97.42490,  93.15640
  97.44494,  86.65154
  97.46497,  88.31964
  97.48501,  93.29955
  97.50505,  90.15179
  97.52508,  89.40556
  97.54512,  90.05023
  97.56516,  90.69321
  97.58519,  87.92246
  97.60523,  88.17780
  97.62527,  83.54018
  97.64530,  84.30158
  97.66534,  87.60403
  97.68538,  89.96647
  97.70542,  89.51059
  97.72545,  88.54030
  97.74549,  87.57116
  97.76553,  89.07194
  97.78557,  84.33649
  97.80560,  85.16000
  97.82564,  87.67321
  97.84568,  92.46832
  97.86571,  89.92758
  97.88575,  86.97306
  97.90579,  89.41141
  97.92583,  91.81747
  97.94586,  88.20293
  97.96590,  89.33055
  97.98594,  91.52650
  98.00598,  88.69075
  98.02601,  94.20851
  98.04605,  89.40799
  98.06609,  83.06992
  98.08613,  88.55039
  98.10616,  91.33892
  98.12620,  85.60404
  98.14624,  91.49783
  98.16627,  95.73711
  98.18631,  97.61768
  98.20635,  93.70607
  98.22639,  94.55657
  98.24642,  90.65595
  98.26646,  91.95033
  98.28650,  93.19666
  98.30654,  97.83720
  98.32657,  93.24144
  98.34661,  96.60044
  98.36665,  99.43972
  98.38669, 100.81474
  98.40673, 106.83206
  98.42676, 109.72217
  98.44680, 122.14655
  98.46684, 124.48805
  98.48688, 130.40598
  98.50691, 138.89782
  98.52695, 154.34246
  98.54699, 160.40148
  98.56703, 173.27841
  98.58707, 178.98603
  98.60710, 177.94186
  98.62714, 170.39554
  98.64718, 172.21727
  98.66722, 168.95007
  98.68726, 156.56298
  98.70729, 146.76650
  98.72733, 130.62299
  98.74737, 124.72488
  98.76741, 130.63289
  98.78745, 126.23529
  98.80748, 125.32338
  98.82752, 119.63994
  98.84756, 122.36866
  98.86760, 126.41754
  98.88764, 136.54802
  98.90767, 136.66993
  98.92771, 143.27636
  98.94775, 135.32548
  98.96779, 127.23788
  98.98783, 122.53116
  99.00786, 119.07021
  99.02790, 117.40041
  99.04794, 107.09705
  99.06798, 100.62195
  99.08802,  98.04520
  99.10805,  94.11845
  99.12809,  93.73946
  99.14813,  96.50576
  99.16817,  94.83912
  99.18821,  93.06920
  99.20825,  88.49288
  99.22828,  88.79240
  99.24832,  92.15399
  99.26836,  88.31826
  99.28840,  84.51122
  99.30844,  85.20035
  99.32848,  88.75405
  99.34851,  91.50506
  99.36855,  89.26094
  99.38859,  91.47061
  99.40863,  87.42384
  99.42867,  83.18348
  99.44871,  86.91835
  99.46874,  83.53578
  99.48878,  88.93680
  99.50882,  83.04692
  99.52886,  87.27836
  99.54890,  88.00125
  99.56894,  86.63875
  99.58898,  86.49302
  99.60902,  87.28071
  99.62905,  82.50869
  99.64909,  84.30657
  99.66913,  84.22451
  99.68917,  89.76217
  99.70921,  88.87201
  99.72925,  89.76188
  99.74929,  80.89538
  99.76932,  87.52326
  99.78936,  87.64013
  99.80940,  90.90725
  99.82944,  92.23326
  99.84948,  90.80538
  99.86952,  89.49099
  99.88956,  86.41607
  99.90960,  88.97494
  99.92963,  87.59961
  99.94968,  81.00253
  99.96971,  86.73415
  99.98975,  89.64549
 100.00979,  85.61826
 100.02983,  83.97157
 100.04987,  84.80923
 100.06991,  84.45985
 100.08995,  89.60204
 100.10999,  84.26053
 100.13003,  84.85679
 100.15006,  81.40493
 100.17010,  77.77313
 100.19014,  83.50040
 100.21018,  87.49671
 100.23022,  84.46101
 100.25026,  81.61110
 100.27030,  87.94485
 100.29034,  85.77083
 100.31038,  82.94446
 100.33042,  85.36606
 100.35046,  88.72550
 100.37050,  93.29597
 100.39053,  84.50202
 100.41057,  79.93631
 100.43061,  86.24017
 100.45065,  90.21393
 100.47069,  90.84442
 100.49073,  82.50094
 100.51077,  88.32618
 100.53081,  82.60354
 100.55085,  83.86278
 100.57089,  91.14820
 100.59093,  91.42166
 100.61097,  88.80064
 100.63101,  83.98817
 100.65105,  84.27156
 100.67108,  80.70719
 100.69112,  80.87309
 100.71117,  82.33353
 100.73120,  75.98612
 100.75124,  81.71396
 100.77128,  84.42260
 100.79132,  86.08066
 100.81136,  84.17233
 100.83140,  83.98951
 100.85144,  82.40144
 100.87148,  83.03520
 100.89152,  81.99517
 100.91156,  90.66821
 100.93160,  92.84280
 100.95164,  82.27428
 100.97168,  84.76952
 100.99172,  85.82398
 101.01176,  85.01278
 101.03180,  89.07891
 101.05184,  84.19778
 101.07188,  84.98049
 101.09192,  84.62065
 101.11196,  81.75557
 101.13200,  81.98626
 101.15204,  87.90576
 101.17208,  87.06063
 101.19212,  89.13988
 101.21216,  78.36235
 101.23220,  84.16592
 101.25224,  83.70621
 101.27228,  83.17163
 101.29232,  87.76074
 101.31236,  87.92954
 101.33240,  86.72919
 101.35244,  83.79623
 101.37248,  81.77713
 101.39252,  83.76569
 101.41256,  85.99187
 101.43260,  87.57520
 101.45264,  81.22414
 101.47268,  85.26069
 101.49272,  89.69736
 101.51276,  83.83703
 101.53280,  90.63902
 101.55284,  89.28359
 101.57288,  83.28033
 101.59292,  77.38246
 101.61296,  83.19876
 101.63300,  87.95188
 101.65304,  85.32437
 101.67308,  87.95363
 101.69312,  87.94627
 101.71316,  83.82590
 101.73320,  87.19858
 101.75324,  87.89271
 101.77328,  90.22287
 101.79332,  87.66393
 101.81336,  84.69086
 101.83340,  83.57752
 101.85344,  83.17149
 101.87348,  83.29350
 101.89353,  86.52563
 101.91357,  91.38749
 101.93361,  83.56369
 101.95365,  81.27583
 101.97369,  85.67176
 101.99373,  82.37237
 102.01377,  88.88285
 102.03381,  85.06786
 102.05385,  81.43613
 102.07389,  82.92917
 102.09393,  85.18903
 102.11397,  85.85707
 102.13401,  81.96465
 102.15405,  87.76840
 102.17410,  85.14562
 102.19414,  81.97927
 102.21418,  87.63643
 102.23422,  85.16927
 102.25426,  83.94923
 102.27430,  85.22176
 102.29434,  79.32731
 102.31438,  83.13673
 102.33442,  82.54969
 102.35446,  81.42970
 102.37450,  87.54336
 102.39454,  78.50880
 102.41458,  87.35582
 102.43463,  82.82948
 102.45467,  82.69964
 102.47471,  75.93430
 102.49475,  82.72677
 102.51479,  89.62503
 102.53483,  89.08980
 102.55487,  84.09540
 102.57491,  83.17952
 102.59496,  78.02533
 102.61500,  82.60201
 102.63504,  82.03273
 102.65508,  78.21428
 102.67512,  92.40717
 102.69516,  83.90607
 102.71520,  89.94455
 102.73524,  87.69594
 102.75528,  82.69242
 102.77533,  79.17071
 102.79537,  83.21203
 102.81541,  85.57045
 102.83545,  80.02596
 102.85549,  83.87130
 102.87553,  81.38036
 102.89557,  83.31431
 102.91562,  84.47713
 102.93566,  81.06137
 102.95570,  83.20961
 102.97574,  86.80066
 102.99578,  81.75454
 103.01582,  86.09219
 103.03587,  86.83687
 103.05591,  89.09430
 103.07595,  86.43275
 103.09599,  86.74746
 103.11603,  87.69405
 103.13607,  84.03357
 103.15611,  83.98120
 103.17615,  87.85668
 103.19620,  86.00074
 103.21624,  87.81674
 103.23628,  86.60057
 103.25632,  86.21426
 103.27637,  83.90816
 103.29641,  80.90680
 103.31645,  83.25123
 103.33649,  82.83090
 103.35653,  84.82356
 103.37657,  83.87794
 103.39662,  81.83454
 103.41666,  83.84533
 103.43670,  85.80945
 103.45674,  85.43688
 103.47678,  82.73352
 103.49683,  81.62897
 103.51687,  86.07760
 103.53691,  86.17906
 103.55695,  84.79902
 103.57699,  84.07272
 103.59703,  84.24076
 103.61708,  87.29322
 103.63712,  83.88510
 103.65716,  87.71528
 103.67720,  81.19532
 103.69725,  80.92608
 103.71729,  81.00786
 103.73733,  84.43085
 103.75737,  88.25424
 103.77741,  85.09949
 103.79746,  81.20641
 103.81750,  82.09672
 103.83754,  86.80544
 103.85758,  82.06379
 103.87763,  85.60370
 103.89767,  81.01384
 103.91771,  79.75509
 103.93775,  81.30734
 103.95780,  84.46469
 103.97784,  79.98942
 103.99788,  86.60778
 104.01792,  88.27887
 104.03797,  87.61344
 104.05801,  84.13725
 104.07805,  84.02924
 104.09809,  84.29783
 104.11813,  79.33880
 104.13818,  82.28862
 104.15822,  87.82406
 104.17826,  89.81221
 104.19831,  90.03715
 104.21835,  86.15699
 104.23839,  79.81242
 104.25843,  84.88932
 104.27848,  83.97568
 104.29852,  83.25468
 104.31856,  84.21621
 104.33860,  84.90616
 104.35865,  84.27407
 104.37869,  86.25634
 104.39873,  86.78656
 104.41878,  79.59784
 104.43882,  85.80560
 104.45886,  79.57680
 104.47890,  82.95085
 104.49895,  86.23727
 104.51899,  85.68383
 104.53903,  81.10399
 104.55908,  85.47290
 104.57912,  80.18506
 104.59916,  79.51739
 104.61921,  82.66746
 104.63925,  87.43154
 104.65929,  85.80840
 104.67933,  81.38242
 104.69938,  82.69779
 104.71942,  87.46790
 104.73946,  90.81589
 104.75951,  78.22221
 104.77955,  82.25427
 104.79959,  84.13840
 104.81964,  84.71995
 104.83968,  78.73643
 104.85972,  76.96226
 104.87977,  76.70827
 104.89981,  81.30549
 104.91985,  81.87964
 104.93990,  86.25575
 104.95994,  81.95720
 104.97998,  78.92534
 105.00003,  84.58252
 105.02007,  79.62588
 105.04011,  75.09334
 105.06016,  85.93241
 105.08020,  87.56494
 105.10024,  80.56245
 105.12029,  80.04345
 105.14033,  81.86418
 105.16037,  78.75285
 105.18042,  78.94021
 105.20046,  81.99111
 105.22051,  80.77084
 105.24055,  78.99126
 105.26059,  80.19748
 105.28064,  81.71569
 105.30068,  82.47903
 105.32072,  82.92147
 105.34077,  84.26279
 105.36081,  85.28169
 105.38086,  87.66504
 105.40090,  80.38905
 105.42094,  83.00816
 105.44099,  83.33232
 105.46103,  81.48487
 105.48107,  83.46420
 105.50112,  83.04932
 105.52116,  80.45052
 105.54121,  83.12174
 105.56125,  82.60282
 105.58129,  76.72838
 105.60134,  83.81984
 105.62138,  80.37509
 105.64143,  76.95889
 105.66147,  77.90963
 105.68151,  84.58005
 105.70156,  84.84501
 105.72160,  80.65663
 105.74165,  83.25109
 105.76169,  80.52378
 105.78173,  86.04260
 105.80178,  86.61022
 105.82182,  88.24616
 105.84187,  82.60939
 105.86191,  86.28440
 105.88196,  80.26014
 105.90200,  80.71824
 105.92205,  82.74426
 105.94209,  84.36864
 105.96213,  82.38376
 105.98218,  82.91429
 106.00222,  81.20401
 106.02227,  84.98336
 106.04231,  81.65225
 106.06235,  86.30815
 106.08240,  82.07437
 106.10244,  85.68213
 106.12249,  81.73177
 106.14253,  82.60740
 106.16258,  81.60990
 106.18262,  80.48594
 106.20267,  84.69296
 106.22271,  87.84395
 106.24276,  83.77061
 106.26280,  79.21855
 106.28284,  84.51230
 106.30289,  85.64548
 106.32294,  87.82435
 106.34298,  80.81410
 106.36302,  74.34044
 106.38307,  79.00290
 106.40311,  80.67259
 106.42316,  79.55110
 106.44320,  82.01667
 106.46325,  84.72301
 106.48329,  81.32129
 106.50334,  75.70476
 106.52338,  85.07893
 106.54343,  80.93345
 106.56347,  82.48694
 106.58352,  83.75184
 106.60356,  82.63531
 106.62361,  87.09051
 106.64365,  86.66753
 106.66370,  84.57886
 106.68375,  80.87092
 106.70379,  72.17472
 106.72384,  75.07755
 106.74388,  79.58974
 106.76392,  82.47848
 106.78397,  80.16133
 106.80401,  82.01716
 106.82406,  85.72850
 106.84411,  84.06207
 106.86415,  83.54418
 106.88420,  81.65660
 106.90424,  81.48221
 106.92429,  81.68913
 106.94433,  84.40218
 106.96438,  80.30328
 106.98442,  83.25139
 107.00447,  85.96680
 107.02451,  82.68374
 107.04456,  84.56943
 107.06461,  79.90366
 107.08465,  77.61398
 107.10470,  76.91344
 107.12474,  79.55508
 107.14479,  82.65178
 107.16483,  82.86765
 107.18488,  77.06671
 107.20493,  80.00542
 107.22497,  79.60442
 107.24502,  85.28627
 107.26506,  81.70979
 107.28511,  81.81017
 107.30515,  80.09679
 107.32520,  79.21383
 107.34524,  79.63373
 107.36529,  80.05620
 107.38534,  80.17997
 107.40538,  81.91262
 107.42543,  85.40576
 107.44548,  87.40842
 107.46552,  85.54842
 107.48557,  84.45897
 107.50561,  86.01428
 107.52566,  81.81070
 107.54570,  77.29540
 107.56575,  82.07333
 107.58580,  82.49593
 107.60584,  84.98874
 107.62589,  88.79419
 107.64593,  79.51531
 107.66598,  82.24509
 107.68603,  83.41185
 107.70607,  79.09164
 107.72612,  78.16573
 107.74617,  80.37430
 107.76621,  83.79686
 107.78626,  84.18144
 107.80631,  79.38122
 107.82635,  81.98650
 107.84640,  76.33272
 107.86644,  83.21445
 107.88649,  79.30604
 107.90654,  76.90957
 107.92658,  80.35726
 107.94663,  82.64968
 107.96668,  84.50707
 107.98672,  81.10706
 108.00677,  78.30324
 108.02682,  79.15502
 108.04686,  80.16369
 108.06691,  83.93908
 108.08696,  83.72986
 108.10700,  82.66671
 108.12705,  85.30436
 108.14710,  81.99881
 108.16714,  81.25872
 108.18719,  73.84041
 108.20724,  81.91224
 108.22728,  83.34937
 108.24733,  79.43074
 108.26738,  77.29608
 108.28742,  80.43420
 108.30747,  79.77693
 108.32752,  81.85242
 108.34756,  82.57024
 108.36761,  84.58295
 108.38766,  83.27993
 108.40771,  79.82279
 108.42775,  80.05367
 108.44780,  75.52708
 108.46785,  81.53613
 108.48789,  83.46449
 108.50794,  83.99319
 108.52799,  80.43571
 108.54803,  80.95154
 108.56808,  75.03934
 108.58813,  76.96491
 108.60818,  72.43471
 108.62822,  79.99528
 108.64827,  84.74142
 108.66832,  79.42399
 108.68837,  77.86509
 108.70841,  78.72722
 108.72846,  77.85253
 108.74851,  78.85180
 108.76856,  79.83402
 108.78860,  84.00677
 108.80865,  85.26252
 108.82870,  82.87860
 108.84875,  73.69374
 108.86879,  80.08175
 108.88884,  82.88355
 108.90889,  81.02335
 108.92894,  79.45864
 108.94898,  84.87323
 108.96903,  85.56552
 108.98908,  77.51503
 109.00913,  79.61915
 109.02917,  80.91036
 109.04922,  79.62328
 109.06927,  77.70343
 109.08932,  83.59750
 109.10937,  86.49357
 109.12941,  78.81658
 109.14946,  85.88265
 109.16951,  80.64106
 109.18956,  78.94566
 109.20961,  76.76593
 109.22965,  77.72589
 109.24970,  75.50007
 109.26975,  82.01443
 109.28980,  81.98692
 109.30984,  81.85720
 109.32989,  82.75309
 109.34994,  81.39963
 109.36999,  83.90831
 109.39004,  77.10689
 109.41008,  79.18154
 109.43013,  85.31431
 109.45018,  84.70361
 109.47023,  78.40511
 109.49028,  83.39043
 109.51033,  82.38490
 109.53037,  80.72090
 109.55042,  82.17113
 109.57047,  81.87238
 109.59052,  81.26003
 109.61057,  83.65756
 109.63062,  77.23480
 109.65067,  79.70870
 109.67071,  78.71732
 109.69076,  77.64653
 109.71081,  79.73743
 109.73086,  75.18169
 109.75091,  75.38636
 109.77096,  78.89635
 109.79101,  82.68817
 109.81105,  80.80098
 109.83110,  82.17545
 109.85115,  83.04649
 109.87120,  81.53455
 109.89125,  79.76418
 109.91130,  82.12868
 109.93135,  79.30367
 109.95139,  83.54791
 109.97144,  82.67066
 109.99149,  77.34885
 110.01154,  82.71267
 110.03159,  84.96748
 110.05164,  81.54322
 110.07169,  79.22069
 110.09174,  81.39069
 110.11179,  75.77878
 110.13183,  77.13857
 110.15188,  80.46591
 110.17193,  80.42851
 110.19198,  73.21977
 110.21203,  77.44503
 110.23208,  82.49988
 110.25213,  80.89554
 110.27218,  86.67424
 110.29223,  84.75086
 110.31228,  80.07595
 110.33233,  82.88488
 110.35238,  79.37292
 110.37243,  85.09175
 110.39248,  78.88325
 110.41252,  84.24483
 110.43257,  85.53064
 110.45262,  82.63604
 110.47267,  78.91719
 110.49272,  81.67248
 110.51277,  75.24466
 110.53282,  80.79417
 110.55287,  85.79804
 110.57292,  82.09682
 110.59297,  77.06398
 110.61302,  83.25933
 110.63307,  76.76629
 110.65312,  79.49816
 110.67317,  80.01739
 110.69322,  77.71045
 110.71327,  79.59961
 110.73332,  77.99813
 110.75337,  84.34511
 110.77342,  80.69196
 110.79347,  76.56532
 110.81352,  79.81820
 110.83357,  72.97500
 110.85362,  76.85121
 110.87367,  84.69538
 110.89372,  76.96699
 110.91377,  78.13948
 110.93382,  77.84130
 110.95387,  79.11611
 110.97392,  78.47227
 110.99397,  84.63912
 111.01402,  82.06382
 111.03407,  80.91260
 111.05412,  80.09874
 111.07417,  80.59794
 111.09422,  81.22859
 111.11427,  83.07412
 111.13432,  81.64037
 111.15437,  81.38656
 111.17442,  82.30358
 111.19447,  76.16890
 111.21452,  86.51351
 111.23457,  82.15819
 111.25462,  83.36456
 111.27467,  85.30435
 111.29472,  80.03414
 111.31477,  82.73505
 111.33482,  80.59836
 111.35487,  84.55861
 111.37492,  82.65178
 111.39497,  81.67294
 111.41503,  82.02840
 111.43508,  80.63388
 111.45513,  85.17290
 111.47518,  84.98778
 111.49523,  81.33649
 111.51528,  80.05084
 111.53533,  87.96261
 111.55538,  89.00126
 111.57543,  77.91428
 111.59548,  78.92422
 111.61553,  76.00903
 111.63558,  72.92970
 111.65563,  77.05397
 111.67569,  78.97469
 111.69574,  77.08960
 111.71579,  82.10083
 111.73584,  78.59103
 111.75589,  77.48305
 111.77594,  80.95119
 111.79599,  85.36179
 111.81604,  80.07693
 111.83610,  76.55706
 111.85615,  84.56532
 111.87620,  84.00319
 111.89625,  83.19237
 111.91630,  78.53359
 111.93635,  81.22755
 111.95640,  83.28106
 111.97646,  85.37009
 111.99651,  85.45552
 112.01656,  81.43428
 112.03661,  85.12376
 112.05666,  81.94962
 112.07671,  82.01005
 112.09677,  78.88849
 112.11681,  83.13278
 112.13687,  82.20506
 112.15692,  82.80490
 112.17697,  80.41804
 112.19702,  80.57579
 112.21707,  78.71232
 112.23713,  82.34654
 112.25718,  78.11814
 112.27723,  84.47388
 112.29728,  75.38197
 112.31733,  79.60419
 112.33739,  82.70198
 112.35744,  81.73545
 112.37749,  81.57509
 112.39754,  78.25884
 112.41759,  80.03161
 112.43764,  84.42916
 112.45770,  80.17892
 112.47775,  82.57855
 112.49780,  77.06071
 112.51785,  86.25180
 112.53791,  83.53771
 112.55796,  80.86506
 112.57801,  76.24863
 112.59806,  83.15232
 112.61811,  81.78540
 112.63817,  81.35470
 112.65822,  84.80193
 112.67827,  77.66128
 112.69832,  80.09210
 112.71838,  81.40328
 112.73843,  78.83081
 112.75848,  82.28366
 112.77853,  81.68058
 112.79859,  80.03428
 112.81864,  77.53376
 112.83869,  85.78345
 112.85874,  80.71302
 112.87879,  76.54228
 112.89885,  84.16616
 112.91890,  81.16722
 112.93895,  79.30123
 112.95901,  83.39010
 112.97906,  83.91294
 112.99911,  79.41837
 113.01916,  76.53391
 113.03922,  79.27196
 113.05927,  82.73663
 113.07932,  82.39816
 113.09938,  82.98486
 113.11943,  81.48308
 113.13948,  79.63626
 113.15954,  82.52834
 113.17959,  81.34712
 113.19964,  80.74113
 113.21969,  77.51247
 113.23975,  69.68820
 113.25980,  76.84604
 113.27986,  84.18522
 113.29991,  80.17600
 113.31996,  79.05717
 113.34001,  79.64857
 113.36007,  84.21402
 113.38012,  82.82947
 113.40017,  77.21873
 113.42023,  76.93828
 113.44028,  81.95970
 113.46033,  77.66585
 113.48039,  81.81752
 113.50044,  75.78947
 113.52050,  78.15227
 113.54055,  78.60010
 113.56060,  77.80120
 113.58066,  84.27065
 113.60071,  82.40202
 113.62076,  79.93027
 113.64082,  78.62381
 113.66087,  85.81485
 113.68092,  86.90123
 113.70098,  82.45370
 113.72103,  83.87082
 113.74108,  78.72649
 113.76114,  86.15590
 113.78119,  79.83132
 113.80125,  81.62951
 113.82130,  80.90267
 113.84135,  80.02973
 113.86141,  75.14276
 113.88146,  77.31519
 113.90152,  74.87994
 113.92157,  76.31003
 113.94162,  86.41536
 113.96168,  79.24184
 113.98173,  80.51936
 114.00179,  79.25392
 114.02184,  78.08900
 114.04190,  81.98567
 114.06195,  80.24073
 114.08200,  78.78260
 114.10206,  80.70268
 114.12211,  80.04159
 114.14217,  79.55538
 114.16222,  80.30947
 114.18228,  83.60926
 114.20233,  84.21043
 114.22239,  79.06079
 114.24244,  81.82253
 114.26249,  84.11000
 114.28255,  81.16815
 114.30260,  81.97846
 114.32266,  82.75915
 114.34271,  79.48437
 114.36277,  78.88108
 114.38282,  79.22055
 114.40288,  83.17020
 114.42293,  77.77644
 114.44299,  81.59926
 114.46304,  78.96921
 114.48310,  77.33222
 114.50315,  79.93898
 114.52321,  79.18529
 114.54326,  83.50851
 114.56332,  78.92667
 114.58337,  81.62764
 114.60343,  86.05118
 114.62348,  84.79960
 114.64354,  81.73601
 114.66359,  83.91289
 114.68365,  81.71979
 114.70370,  82.57434
 114.72376,  83.20127
 114.74381,  83.59462
 114.76387,  82.46316
 114.78392,  82.05762
 114.80398,  82.35172
 114.82404,  81.39868
 114.84409,  81.19657
 114.86415,  78.28036
 114.88420,  87.60149
 114.90426,  86.22316
 114.92431,  85.05445
 114.94437,  83.04893
 114.96442,  88.96244
 114.98448,  86.93211
 115.00454,  84.31395
 115.02459,  81.63976
 115.04465,  83.24886
 115.06470,  84.83961
 115.08476,  91.79891
 115.10481,  88.27170
 115.12487,  89.56238
 115.14493,  93.39567
 115.16498,  94.40759
 115.18504,  92.94361
 115.20509,  88.79720
 115.22515,  91.35665
 115.24521,  89.02980
 115.26526,  88.33414
 115.28532,  90.04750
 115.30538,  97.75065
 115.32543,  95.63483
 115.34549,  93.63065
 115.36554,  97.67499
 115.38560,  93.38857
 115.40565,  95.78057
 115.42571,  94.11957
 115.44577,  92.39219
 115.46583, 102.70832
 115.48588, 100.68758
 115.50594, 100.46270
 115.52599, 115.05813
 115.54605, 107.74407
 115.56611, 108.83416
 115.58617, 109.91121
 115.60622, 116.18631
 115.62628, 120.54987
 115.64633, 132.16286
 115.66639, 132.09080
 115.68645, 138.65356
 115.70650, 143.75303
 115.72656, 147.67532
 115.74662, 169.51344
 115.76667, 172.78757
 115.78673, 184.27488
 115.80679, 204.85055
 115.82684, 197.88970
 115.84690, 205.76407
 115.86696, 201.60803
 115.88702, 209.03111
 115.90707, 203.92645
 115.92713, 203.81674
 115.94719, 193.49044
 115.96724, 175.16142
 115.98730, 163.28560
 116.00736, 160.46332
 116.02742, 149.36093
 116.04748, 144.71468
 116.06753, 142.37266
 116.08759, 126.76700
 116.10765, 122.65298
 116.12770, 128.55464
 116.14776, 129.31578
 116.16782, 127.05695
 116.18788, 133.36767
 116.20793, 133.72738
 116.22799, 139.48771
 116.24805, 137.24634
 116.26811, 144.91108
 116.28816, 144.55935
 116.30822, 144.08645
 116.32828, 147.88856
 116.34834, 141.58923
 116.36840, 149.27726
 116.38845, 129.79717
 116.40851, 132.45489
 116.42857, 133.81833
 116.44863, 125.66354
 116.46869, 112.59020
 116.48874, 106.79928
 116.50880, 105.54990
 116.52886, 102.98085
 116.54892,  93.07967
 116.56898,  97.12390
 116.58903,  91.48733
 116.60909,  92.01729
 116.62915,  87.84564
 116.64921,  83.12336
 116.66927,  84.22096
 116.68933,  84.07017
 116.70938,  90.55844
 116.72944,  87.14438
 116.74950,  88.92172
 116.76956,  83.55878
 116.78962,  89.35690
 116.80968,  81.30034
 116.82974,  85.08426
 116.84979,  86.19065
 116.86985,  86.60568
 116.88991,  85.48407
 116.90997,  78.17671
 116.93003,  80.84911
 116.95009,  83.77481
 116.97015,  86.74057
 116.99021,  87.24841
 117.01026,  85.16018
 117.03032,  80.26617
 117.05038,  81.53808
 117.07044,  80.29988
 117.09050,  83.58732
 117.11056,  76.63997
 117.13062,  82.90854
 117.15068,  86.26183
 117.17074,  80.93780
 117.19080,  86.19112
 117.21086,  87.25110
 117.23091,  85.80772
 117.25097,  85.12799
 117.27103,  87.10781
 117.29109,  84.67373
 117.31115,  89.12243
 117.33121,  83.31455
 117.35127,  87.05372
 117.37133,  87.62169
 117.39139,  81.43709
 117.41145,  89.08623
 117.43151,  92.25483
 117.45157,  84.65159
 117.47163,  84.95012
 117.49169,  89.09498
 117.51175,  91.06952
 117.53181,  93.14164
 117.55187,  93.47933
 117.57193,  96.98127
 117.59199,  98.19553
 117.61205, 109.17986
 117.63211, 103.18201
 117.65217, 111.55905
 117.67223, 106.89160
 117.69229, 108.16819
 117.71235, 103.83704
 117.73241, 101.11735
 117.75247, 103.85324
 117.77253, 103.35480
 117.79259, 108.30372
 117.81265, 105.45734
 117.83271, 104.93494
 117.85277,  98.88369
 117.87283,  96.65276
 117.89289, 100.04332
 117.91295,  99.89556
 117.93301,  99.87252
 117.95307,  94.42073
 117.97313,  88.53412
 117.99319,  88.75645
 118.01325,  89.57981
 118.03331,  92.54028
 118.05337,  91.83010
 118.07344,  92.13856
 118.09350,  87.34235
 118.11356,  87.59321
 118.13362,  88.06509
 118.15368,  92.19259
 118.17374,  84.34468
 118.19380,  87.47421
 118.21386,  90.07306
 118.23392,  85.29612
 118.25398,  87.30204
 118.27404,  86.72762
 118.29410,  87.13283
 118.31417,  84.93119
 118.33423,  88.00660
 118.35429,  84.46084
 118.37435,  86.43585
 118.39441,  86.53545
 118.41447,  84.33973
 118.43453,  82.14592
 118.45460,  84.04460
 118.47466,  81.58707
 118.49472,  83.73307
 118.51478,  88.11336
 118.53484,  80.03019
 118.55490,  83.49092
 118.57497,  87.26702
 118.59503,  83.58738
 118.61509,  77.72379
 118.63515,  79.61168
 118.65521,  75.49181
 118.67527,  79.73636
 118.69533,  87.13016
 118.71540,  78.38912
 118.73546,  75.16805
 118.75552,  82.78160
 118.77558,  80.80973
 118.79565,  79.55171
 118.81571,  81.14071
 118.83577,  82.97103
 118.85583,  75.41379
 118.87589,  79.08350
 118.89596,  77.52080
 118.91602,  77.59980
 118.93608,  75.23986
 118.95614,  81.10095
 118.97621,  79.50340
 118.99627,  74.69211
 119.01633,  76.76417
 119.03639,  75.92542
 119.05646,  81.84268
 119.07652,  75.32708
 119.09658,  76.16280
 119.11664,  77.74348
 119.13670,  78.69106
 119.15677,  82.91218
 119.17683,  81.66266
 119.19689,  80.70408
 119.21696,  74.43587
 119.23702,  74.06810
 119.25708,  76.93454
 119.27714,  80.60287
 119.29721,  77.82207
 119.31727,  80.08967
 119.33734,  76.54976
 119.35740,  73.46697
 119.37746,  79.70652
 119.39752,  75.56848
