# 2Theta,Counts
  35.62961, 265.41788
  35.64963, 276.09999
  35.66965, 261.65026
  35.68967, 261.19780
  35.70969, 256.07786
  35.72970, 270.45683
  35.74972, 267.07332
  35.76974, 269.49941
  35.78976, 265.68507
  35.80977, 265.27050
  35.82979, 276.81476
  35.84981, 274.16784
  35.86983, 257.65557
  35.88985, 269.20857
  35.90986, 271.22896
  35.92988, 267.73984
  35.94990, 256.55825
  35.96992, 265.84060
  35.98993, 269.62003
  36.00995, 270.82172
  36.02997, 272.15047
  36.04999, 256.20614
  36.07001, 255.21583
  36.09002, 258.76309
  36.11004, 264.44432
  36.13006, 264.34521
  36.15008, 255.96166
  36.17009, 264.84541
  36.19011, 265.80390
  36.21013, 260.55815
  36.23015, 254.22013
  36.25017, 252.87336
  36.27018, 260.17816
  36.29020, 254.60433
  36.31022, 256.32943
  36.33024, 247.30551
  36.35025, 271.92949
  36.37027, 264.04863
  36.39029, 259.06904
  36.41031, 261.13447
  36.43033, 266.33034
  36.45034, 252.71353
  36.47036, 260.65933
  36.49038, 259.34173
  36.51040, 258.36099
  36.53041, 250.14740
  36.55043, 254.11720
  36.57045, 252.41818
  36.59047, 246.94898
  36.61049, 267.72099
  36.63050, 253.52814
  36.65052, 253.29037
  36.67054, 252.31672
  36.69056, 259.59266
  36.71058, 253.25045
  36.73059, 252.42151
  36.75061, 244.29925
  36.77063, 264.50845
  36.79065, 266.85576
  36.81067, 261.21912
  36.83068, 253.75676
  36.85070, 254.23546
  36.87072, 251.17194
  36.89074, 247.17533
  36.91076, 258.82505
  36.93077, 252.90689
  36.95079, 259.89490
  36.97081, 259.22346
  36.99083, 249.62542
  37.01084, 257.22810
  37.03086, 249.32183
  37.05088, 268.28672
  37.07090, 250.37874
  37.09092, 244.24887
  37.11093, 248.78324
  37.13095, 254.49161
  37.15097, 258.16332
  37.17099, 251.58769
  37.19100, 245.38521
  37.21102, 250.78050
  37.23104, 244.79337
  37.25106, 243.39468
  37.27108, 255.40154
  37.29110, 262.95143
  37.31111, 247.21335
  37.33113, 248.63103
  37.35115, 260.01230
  37.37117, 252.80861
  37.39118, 255.09585
  37.41120, 236.15557
  37.43122, 238.43897
  37.45124, 256.20600
  37.47126, 243.51015
  37.49127, 245.89632
  37.51129, 240.21256
  37.53131, 247.63313
  37.55133, 251.37308
  37.57135, 250.18902
  37.59136, 245.34401
  37.61138, 257.88168
  37.63140, 251.39091
  37.65142, 262.11571
  37.67144, 256.80024
  37.69145, 247.28913
  37.71147, 242.20387
  37.73149, 240.67963
  37.75151, 234.92383
  37.77153, 246.08494
  37.79154, 248.13652
  37.81156, 247.15657
  37.83158, 244.74132
  37.85160, 244.97547
  37.87162, 246.99232
  37.89163, 248.85535
  37.91165, 252.20056
  37.93167, 258.23353
  37.95169, 244.77497
  37.97171, 250.09850
  37.99172, 248.97802
  38.01174, 234.96725
  38.03176, 240.56855
  38.05178, 251.20417
  38.07180, 242.18213
  38.09181, 238.38205
  38.11183, 232.04551
  38.13185, 234.62460
  38.15187, 234.38284
  38.17189, 236.63179
  38.19190, 238.87358
  38.21192, 244.73395
  38.23194, 245.38762
  38.25196, 245.74371
  38.27198, 239.52340
  38.29199, 236.42116
  38.31201, 237.59133
  38.33203, 231.72694
  38.35205, 245.18250
  38.37207, 244.00662
  38.39208, 229.20991
  38.41210, 238.68315
  38.43212, 237.20834
  38.45214, 239.27046
  38.47216, 250.86619
  38.49217, 235.09366
  38.51219, 232.38597
  38.53221, 230.44184
  38.55223, 238.02330
  38.57225, 233.90130
  38.59227, 237.12614
  38.61228, 228.75452
  38.63230, 236.18281
  38.65232, 236.20942
  38.67234, 240.31645
  38.69236, 249.43978
  38.71237, 231.94554
  38.73239, 238.02278
  38.75241, 245.06739
  38.77243, 237.48803
  38.79245, 234.22792
  38.81246, 234.88501
  38.83248, 239.94543
  38.85250, 232.34651
  38.87252, 247.95266
  38.89254, 227.13499
  38.91255, 238.74701
  38.93257, 241.56338
  38.95259, 244.89271
  38.97261, 239.27875
  38.99263, 247.31916
  39.01265, 235.69943
  39.03266, 228.86579
  39.05268, 250.27326
  39.07270, 234.07730
  39.09272, 232.80013
  39.11274, 235.03966
  39.13275, 235.54270
  39.15277, 242.39828
  39.17279, 226.73053
  39.19281, 234.64313
  39.21283, 231.18908
  39.23284, 229.07090
  39.25286, 223.01660
  39.27288, 235.76699
  39.29290, 227.72687
  39.31292, 226.91184
  39.33293, 241.67236
  39.35295, 240.38417
  39.37297, 237.40979
  39.39299, 238.63782
  39.41301, 237.20924
  39.43303, 230.54054
  39.45304, 234.83520
  39.47306, 237.17629
  39.49308, 234.24292
  39.51310, 234.43100
  39.53312, 244.65567
  39.55313, 241.06929
  39.57315, 228.25269
  39.59317, 228.91643
  39.61319, 223.50030
  39.63321, 224.00804
  39.65323, 229.88126
  39.67324, 234.41121
  39.69326, 236.47673
  39.71328, 233.61632
  39.73330, 227.73486
  39.75332, 235.17314
  39.77334, 250.59338
  39.79335, 248.48378
  39.81337, 239.31493
  39.83339, 234.19332
  39.85341, 223.45518
  39.87343, 223.60740
  39.89344, 228.17810
  39.91346, 231.10822
  39.93348, 233.56569
  39.95350, 231.44005
  39.97352, 228.96305
  39.99354, 232.70629
  40.01355, 219.21979
  40.03357, 228.82384
  40.05359, 226.98389
  40.07361, 237.73576
  40.09363, 229.84886
  40.11364, 227.20345
  40.13366, 234.87538
  40.15368, 233.06793
  40.17370, 229.68965
  40.19372, 229.97569
  40.21374, 230.36383
  40.23375, 247.78795
  40.25377, 230.80476
  40.27379, 244.65462
  40.29381, 235.27461
  40.31383, 225.26089
  40.33385, 235.02984
  40.35386, 233.88606
  40.37388, 227.12759
  40.39390, 218.18370
  40.41392, 223.56994
  40.43394, 231.51365
  40.45396, 231.11445
  40.47397, 224.29321
  40.49399, 227.07657
  40.51401, 208.99823
  40.53403, 220.99403
  40.55405, 218.21803
  40.57406, 229.42731
  40.59408, 228.67571
  40.61410, 228.29978
  40.63412, 220.53657
  40.65414, 220.40886
  40.67416, 214.11800
  40.69418, 215.99718
  40.71419, 228.66280
  40.73421, 218.45630
  40.75423, 214.88434
  40.77425, 216.14516
  40.79427, 217.47199
  40.81428, 234.28096
  40.83430, 221.39710
  40.85432, 224.49876
  40.87434, 216.62353
  40.89436, 218.83996
  40.91438, 226.00612
  40.93439, 225.51408
  40.95441, 223.18435
  40.97443, 220.09943
  40.99445, 224.70386
  41.01447, 214.97120
  41.03449, 224.25778
  41.05450, 214.86202
  41.07452, 234.11489
  41.09454, 230.18396
  41.11456, 215.92690
  41.13458, 213.81436
  41.15460, 226.77596
  41.17461, 222.09160
  41.19463, 219.63638
  41.21465, 220.80788
  41.23467, 238.77051
  41.25469, 230.79649
  41.27471, 218.65905
  41.29472, 226.97916
  41.31474, 233.87064
  41.33476, 220.55857
  41.35478, 221.48128
  41.37480, 223.10177
  41.39482, 229.54265
  41.41484, 230.53332
  41.43485, 215.62146
  41.45487, 213.67117
  41.47489, 215.62351
  41.49491, 219.66742
  41.51493, 214.87390
  41.53495, 218.11639
  41.55496, 222.65701
  41.57498, 217.82578
  41.59500, 221.81933
  41.61502, 220.98200
  41.63504, 213.30513
  41.65506, 217.46293
  41.67507, 213.58706
  41.69509, 212.59378
  41.71511, 226.50680
  41.73513, 223.05461
  41.75515, 226.74284
  41.77517, 224.09136
  41.79519, 214.08427
  41.81520, 207.06504
  41.83522, 211.79881
  41.85524, 225.43370
  41.87526, 221.69096
  41.89528, 215.48457
  41.91530, 218.76327
  41.93532, 214.45569
  41.95533, 218.02151
  41.97535, 219.70763
  41.99537, 213.17444
  42.01539, 218.99262
  42.03541, 219.70163
  42.05543, 219.55993
  42.07544, 205.95685
  42.09546, 215.44940
  42.11548, 221.94229
  42.13550, 213.82834
  42.15552, 216.64671
  42.17554, 222.61103
  42.19556, 216.98426
  42.21557, 215.21227
  42.23559, 218.41775
  42.25561, 219.97518
  42.27563, 226.34507
  42.29565, 211.63438
  42.31567, 217.56168
  42.33568, 220.74381
  42.35570, 214.54455
  42.37572, 214.39709
  42.39574, 211.05989
  42.41576, 204.30257
  42.43578, 206.57749
  42.45580, 202.61815
  42.47581, 212.21449
  42.49583, 213.06906
  42.51585, 219.84778
  42.53587, 211.66384
  42.55589, 215.97541
  42.57591, 216.79046
  42.59593, 215.88738
  42.61594, 225.70405
  42.63596, 223.86755
  42.65598, 212.76065
  42.67600, 212.19577
  42.69602, 227.14849
  42.71604, 224.33977
  42.73605, 219.92440
  42.75607, 218.62637
  42.77609, 226.36222
  42.79611, 230.83483
  42.81613, 222.16705
  42.83615, 217.68567
  42.85617, 222.59384
  42.87618, 222.88460
  42.89620, 218.17878
  42.91622, 217.97732
  42.93624, 219.85953
  42.95626, 216.00690
  42.97628, 222.99560
  42.99630, 229.78325
  43.01632, 224.21951
  43.03633, 220.30619
  43.05635, 218.55096
  43.07637, 221.98572
  43.09639, 221.66936
  43.11641, 224.31218
  43.13643, 228.86302
  43.15645, 220.68241
  43.17646, 220.08184
  43.19648, 212.34353
  43.21650, 224.60074
  43.23652, 227.21356
  43.25654, 220.51008
  43.27656, 222.78062
  43.29658, 224.86823
  43.31659, 224.55345
  43.33661, 230.57676
  43.35663, 228.99109
  43.37665, 217.45741
  43.39667, 218.45686
  43.41669, 223.59821
  43.43671, 224.18047
  43.45672, 232.05959
  43.47674, 223.25186
  43.49676, 214.89271
  43.51678, 218.52372
  43.53680, 216.92756
  43.55682, 235.14712
  43.57684, 245.68772
  43.59686, 228.61905
  43.61687, 225.35433
  43.63689, 228.70687
  43.65691, 224.99701
  43.67693, 234.38727
  43.69695, 224.18676
  43.71697, 222.21314
  43.73699, 233.46766
  43.75700, 232.09768
  43.77702, 234.58770
  43.79704, 234.38046
  43.81706, 239.38614
  43.83708, 235.93713
  43.85710, 230.42024
  43.87712, 236.68348
  43.89714, 233.56536
  43.91715, 230.78099
  43.93717, 229.76398
  43.95719, 226.19468
  43.97721, 223.16725
  43.99723, 226.87303
  44.01725, 235.89606
  44.03727, 239.49056
  44.05729, 249.65142
  44.07730, 248.98688
  44.09732, 239.56721
  44.11734, 252.09087
  44.13736, 261.15867
  44.15738, 262.21233
  44.17740, 263.93737
  44.19742, 271.96543
  44.21744, 271.27628
  44.23745, 262.80348
  44.25747, 287.67414
  44.27749, 288.10494
  44.29751, 301.16830
  44.31753, 330.97654
  44.33755, 344.99054
  44.35757, 360.39632
  44.37759, 391.31427
  44.39761, 407.42278
  44.41762, 451.00541
  44.43764, 491.07311
  44.45766, 556.37450
  44.47768, 636.00175
  44.49770, 762.74005
  44.51772, 911.43275
  44.53774,1144.54850
  44.55775,1485.98700
  44.57777,1984.02850
  44.59779,2544.65960
  44.61781,3162.95470
  44.63783,3791.06250
  44.65785,4208.93130
  44.67787,4533.39860
  44.69789,4532.67120
  44.71791,4299.12440
  44.73792,3952.79850
  44.75794,3589.26320
  44.77796,3215.32390
  44.79798,2883.39410
  44.81800,2534.43200
  44.83802,2128.81190
  44.85804,1702.13870
  44.87806,1316.08620
  44.89807,1032.75590
  44.91809, 829.94018
  44.93811, 674.78145
  44.95813, 583.03620
  44.97815, 497.28689
  44.99817, 452.22522
  45.01819, 407.16745
  45.03821, 375.06064
  45.05823, 355.08364
  45.07824, 324.38941
  45.09826, 318.86896
  45.11828, 299.94164
  45.13830, 278.29221
  45.15832, 263.71549
  45.17834, 254.36969
  45.19836, 262.64146
  45.21838, 261.66454
  45.23840, 258.34870
  45.25841, 249.90697
  45.27843, 237.62952
  45.29845, 238.46304
  45.31847, 229.20837
  45.33849, 224.98229
  45.35851, 224.98731
  45.37853, 227.42824
  45.39855, 212.15083
  45.41856, 211.99423
  45.43858, 228.62310
  45.45860, 226.27987
  45.47862, 221.80211
  45.49864, 216.24733
  45.51866, 214.25351
  45.53868, 218.29205
  45.55870, 213.08380
  45.57872, 209.93772
  45.59874, 210.54458
  45.61875, 204.55282
  45.63877, 206.95324
  45.65879, 215.05981
  45.67881, 202.43863
  45.69883, 208.19507
  45.71885, 210.18427
  45.73887, 203.76751
  45.75889, 212.69117
  45.77891, 205.00514
  45.79892, 201.27099
  45.81894, 199.25764
  45.83896, 191.78205
  45.85898, 197.53109
  45.87900, 197.56180
  45.89902, 192.90322
  45.91904, 191.92191
  45.93906, 205.68961
  45.95908, 198.51573
  45.97910, 192.37773
  45.99912, 194.55311
  46.01913, 204.08407
  46.03915, 191.62585
  46.05917, 183.87180
  46.07919, 193.76214
  46.09921, 195.83857
  46.11923, 196.84567
  46.13925, 200.78114
  46.15927, 194.51656
  46.17929, 201.72480
  46.19931, 204.02682
  46.21932, 202.17333
  46.23934, 196.55468
  46.25936, 198.60702
  46.27938, 187.45691
  46.29940, 192.40937
  46.31942, 194.41142
  46.33944, 194.40777
  46.35946, 194.12441
  46.37948, 192.45907
  46.39950, 195.31061
  46.41952, 189.49403
  46.43953, 177.87715
  46.45955, 188.67295
  46.47957, 190.28774
  46.49959, 184.02936
  46.51961, 186.34249
  46.53963, 194.97020
  46.55965, 203.53024
  46.57967, 179.40061
  46.59969, 195.35098
  46.61970, 187.23118
  46.63972, 192.61773
  46.65974, 201.01514
  46.67976, 192.84480
  46.69978, 190.49515
  46.71980, 182.66365
  46.73982, 181.06948
  46.75984, 195.46104
  46.77986, 188.67253
  46.79988, 184.03152
  46.81990, 176.47033
  46.83992, 182.49850
  46.85994, 179.01785
  46.87995, 179.18396
  46.89997, 184.50322
  46.91999, 183.24372
  46.94001, 193.86217
  46.96003, 190.85601
  46.98005, 186.77635
  47.00007, 182.92279
  47.02009, 187.58087
  47.04011, 191.87103
  47.06013, 190.46405
  47.08015, 184.83602
  47.10016, 188.85114
  47.12018, 180.09807
  47.14020, 189.24498
  47.16022, 185.54895
  47.18024, 187.49261
  47.20026, 188.17064
  47.22028, 180.21690
  47.24030, 185.65052
  47.26032, 187.07234
  47.28034, 183.35865
  47.30036, 194.12817
  47.32037, 190.48072
  47.34039, 185.82001
  47.36041, 184.20608
  47.38043, 180.58304
  47.40045, 181.88949
  47.42047, 183.89338
  47.44049, 197.69765
  47.46051, 193.39329
  47.48053, 197.26827
  47.50055, 202.41726
  47.52057, 199.15130
  47.54059, 199.39984
  47.56061, 182.76067
  47.58062, 206.38614
  47.60064, 195.77731
  47.62066, 197.95771
  47.64068, 201.49074
  47.66070, 186.86475
  47.68072, 187.07221
  47.70074, 196.00245
  47.72076, 185.33911
  47.74078, 176.87340
  47.76080, 177.92037
  47.78082, 186.34294
  47.80084, 184.95381
  47.82086, 184.68662
  47.84088, 181.34040
  47.86089, 174.90387
  47.88091, 183.01003
  47.90093, 177.38285
  47.92095, 190.62159
  47.94097, 175.08198
  47.96099, 177.83466
  47.98101, 179.79186
  48.00103, 186.68975
  48.02105, 184.38757
  48.04107, 189.99639
  48.06109, 182.61981
  48.08111, 181.53239
  48.10113, 186.97894
  48.12115, 181.96163
  48.14116, 183.09106
  48.16118, 181.84856
  48.18120, 180.13576
  48.20122, 170.25945
  48.22124, 183.26710
  48.24126, 185.25546
  48.26128, 183.75456
  48.28130, 178.56925
  48.30132, 174.67330
  48.32134, 178.48011
  48.34136, 184.51804
  48.36138, 180.25341
  48.38140, 183.31003
  48.40142, 186.83336
  48.42143, 177.70866
  48.44145, 183.05590
  48.46147, 178.93217
  48.48149, 178.19096
  48.50151, 174.66632
  48.52153, 177.46406
  48.54155, 182.31383
  48.56157, 187.71503
  48.58159, 189.53641
  48.60161, 187.68644
  48.62163, 188.29654
  48.64165, 191.35486
  48.66167, 187.37977
  48.68169, 177.11652
  48.70171, 180.30455
  48.72173, 184.54452
  48.74175, 176.17317
  48.76176, 171.80766
  48.78178, 174.56511
  48.80180, 168.05164
  48.82182, 175.46176
  48.84184, 176.49609
  48.86186, 179.00101
  48.88188, 172.86248
  48.90190, 184.02887
  48.92192, 183.92916
  48.94194, 175.34389
  48.96196, 173.90193
  48.98198, 181.93987
  49.00200, 178.08264
  49.02202, 177.90543
  49.04204, 176.94907
  49.06206, 174.24398
  49.08208, 167.49806
  49.10210, 172.14903
  49.12211, 169.59806
  49.14213, 171.47901
  49.16215, 181.79915
  49.18217, 179.60137
  49.20219, 180.83946
  49.22221, 175.05848
  49.24223, 171.29096
  49.26225, 168.19002
  49.28227, 170.00485
  49.30229, 174.38056
  49.32231, 169.11197
  49.34233, 187.66086
  49.36235, 177.43126
  49.38237, 179.63385
  49.40239, 169.77841
  49.42241, 168.44295
  49.44243, 172.01304
  49.46245, 167.63796
  49.48246, 174.91892
  49.50249, 170.82301
  49.52250, 166.51321
  49.54252, 169.85220
  49.56254, 172.89705
  49.58256, 170.61809
  49.60258, 170.53481
  49.62260, 179.57159
  49.64262, 171.34301
  49.66264, 175.90553
  49.68266, 164.17270
  49.70268, 171.03053
  49.72270, 166.29572
  49.74272, 170.48198
  49.76274, 178.95257
  49.78276, 175.52372
  49.80278, 167.11476
  49.82280, 169.42663
  49.84282, 167.59712
  49.86284, 174.13210
  49.88286, 174.39186
  49.90288, 167.65142
  49.92289, 164.31245
  49.94291, 177.40628
  49.96293, 176.11534
  49.98295, 160.55064
  50.00297, 169.88102
  50.02299, 173.10956
  50.04301, 170.64105
  50.06303, 171.52260
  50.08305, 178.24877
  50.10307, 170.02135
  50.12309, 168.74411
  50.14311, 172.41242
  50.16313, 167.75251
  50.18315, 170.23271
  50.20317, 174.37080
  50.22319, 174.01826
  50.24321, 177.97842
  50.26323, 165.77948
  50.28325, 163.79954
  50.30327, 160.65287
  50.32329, 167.44228
  50.34331, 173.10065
  50.36333, 162.29085
  50.38335, 169.73835
  50.40337, 170.02055
  50.42339, 161.66407
  50.44341, 162.70347
  50.46343, 177.86562
  50.48345, 175.04666
  50.50346, 164.74088
  50.52348, 161.17589
  50.54350, 166.02890
  50.56352, 168.42458
  50.58354, 169.80873
  50.60356, 172.39106
  50.62358, 176.17056
  50.64360, 170.24733
  50.66362, 174.72043
  50.68364, 170.14286
  50.70366, 171.29313
  50.72368, 165.96571
  50.74370, 169.16676
  50.76372, 173.83117
  50.78374, 171.43058
  50.80376, 170.65299
  50.82378, 167.19466
  50.84380, 174.15709
  50.86382, 168.32235
  50.88384, 161.97376
  50.90386, 165.93008
  50.92388, 165.56210
  50.94390, 166.93676
  50.96392, 161.05408
  50.98394, 167.22835
  51.00396, 168.40885
  51.02398, 168.24849
  51.04400, 168.01005
  51.06402, 168.66107
  51.08404, 163.66756
  51.10406, 161.93106
  51.12408, 168.24593
  51.14410, 171.80305
  51.16412, 173.35063
  51.18414, 171.94778
  51.20416, 164.04982
  51.22418, 165.80367
  51.24419, 161.57905
  51.26421, 163.64698
  51.28423, 156.66408
  51.30425, 161.36641
  51.32427, 166.49991
  51.34429, 160.05064
  51.36431, 159.62411
  51.38433, 165.03796
  51.40435, 164.42115
  51.42437, 168.25040
  51.44439, 162.60534
  51.46441, 162.62168
  51.48443, 165.29870
  51.50445, 172.70828
  51.52447, 174.87793
  51.54449, 166.16231
  51.56451, 164.20163
  51.58453, 170.08039
  51.60455, 170.94361
  51.62457, 168.03468
  51.64459, 166.95717
  51.66461, 167.62281
  51.68463, 166.55338
  51.70465, 158.95543
  51.72467, 160.40866
  51.74469, 164.38106
  51.76471, 171.86212
  51.78473, 166.13826
  51.80475, 157.53084
  51.82477, 158.38227
  51.84479, 161.10833
  51.86481, 170.34543
  51.88483, 163.50665
  51.90485, 157.85780
  51.92487, 167.03432
  51.94489, 161.28954
  51.96491, 161.69931
  51.98493, 171.82362
  52.00495, 164.04009
  52.02497, 161.48043
  52.04499, 166.97706
  52.06501, 162.34635
  52.08503, 166.49210
  52.10505, 162.37711
  52.12507, 169.44811
  52.14509, 164.14694
  52.16511, 165.62522
  52.18513, 166.96107
  52.20515, 169.54803
  52.22517, 161.85182
  52.24519, 160.47711
  52.26521, 170.26763
  52.28523, 153.80427
  52.30525, 161.18678
  52.32527, 158.52960
  52.34529, 159.11814
  52.36531, 164.48267
  52.38533, 155.19448
  52.40535, 154.86396
  52.42537, 158.04163
  52.44539, 160.15729
  52.46541, 160.53412
  52.48543, 151.18001
  52.50545, 161.58803
  52.52547, 161.29278
  52.54549, 158.85009
  52.56551, 160.05557
  52.58553, 160.95052
  52.60555, 156.83163
  52.62557, 155.02681
  52.64559, 158.01927
  52.66561, 154.68555
  52.68563, 164.09210
  52.70565, 165.82753
  52.72567, 157.04583
  52.74569, 164.35335
  52.76571, 162.49570
  52.78573, 159.06227
  52.80575, 163.00040
  52.82577, 155.41843
  52.84579, 162.73015
  52.86581, 153.57521
  52.88583, 157.64266
  52.90585, 160.75287
  52.92587, 155.64942
  52.94589, 157.00168
  52.96591, 152.91171
  52.98593, 159.19307
  53.00595, 153.53787
  53.02597, 165.69815
  53.04599, 155.72464
  53.06601, 155.99609
  53.08603, 160.79353
  53.10605, 156.77320
  53.12607, 159.09560
  53.14609, 160.81336
  53.16611, 157.18517
  53.18613, 149.56110
  53.20615, 157.78977
  53.22617, 153.94005
  53.24619, 151.44700
  53.26621, 156.69981
  53.28623, 156.28986
  53.30625, 159.21949
  53.32627, 156.90622
  53.34629, 154.93028
  53.36631, 146.01171
  53.38633, 154.66766
  53.40635, 154.73627
  53.42637, 149.12774
  53.44639, 160.46208
  53.46641, 156.48074
  53.48643, 152.72387
  53.50645, 158.50353
  53.52647, 155.10017
  53.54649, 157.66776
  53.56651, 160.97846
  53.58653, 154.50030
  53.60655, 162.59259
  53.62657, 160.60084
  53.64660, 149.29207
  53.66661, 156.54769
  53.68664, 154.37646
  53.70666, 150.66560
  53.72668, 149.33986
  53.74670, 163.00348
  53.76672, 154.99942
  53.78674, 161.98398
  53.80676, 151.59510
  53.82678, 163.04285
  53.84680, 154.84607
  53.86682, 154.80762
  53.88684, 157.32314
  53.90686, 160.51972
  53.92688, 155.71801
  53.94690, 150.14744
  53.96692, 155.14412
  53.98694, 166.48586
  54.00696, 156.19305
  54.02698, 153.61995
  54.04700, 155.25332
  54.06702, 155.29722
  54.08704, 154.45547
  54.10706, 147.44663
  54.12708, 157.16026
  54.14710, 153.42761
  54.16712, 147.59331
  54.18714, 159.07496
  54.20716, 155.80208
  54.22718, 158.24474
  54.24720, 155.92605
  54.26722, 156.03680
  54.28724, 151.29863
  54.30726, 160.54867
  54.32728, 157.02244
  54.34730, 162.12059
  54.36732, 151.83261
  54.38735, 150.04933
  54.40737, 147.42232
  54.42739, 159.39799
  54.44741, 145.33003
  54.46743, 144.32514
  54.48745, 151.11918
  54.50747, 149.62498
  54.52749, 149.44895
  54.54751, 151.83072
  54.56753, 154.59944
  54.58755, 154.86957
  54.60757, 157.18401
  54.62759, 156.06065
  54.64761, 155.73475
  54.66763, 154.25103
  54.68765, 156.02727
  54.70767, 156.28277
  54.72769, 147.14341
  54.74771, 158.26823
  54.76773, 147.43682
  54.78775, 152.12017
  54.80777, 158.36361
  54.82779, 156.47387
  54.84781, 149.18927
  54.86783, 155.30131
  54.88786, 147.23054
  54.90788, 154.85985
  54.92790, 153.02104
  54.94792, 151.63936
  54.96794, 158.23419
  54.98796, 155.42930
  55.00798, 158.14030
  55.02800, 149.81638
  55.04802, 147.87594
  55.06804, 155.85063
  55.08806, 151.04448
  55.10808, 156.84411
  55.12810, 145.69637
  55.14812, 156.23548
  55.16814, 155.90862
  55.18816, 158.94221
  55.20818, 159.53338
  55.22820, 148.73481
  55.24822, 149.72658
  55.26824, 153.68432
  55.28826, 155.63211
  55.30828, 154.29406
  55.32831, 152.68057
  55.34833, 146.90601
  55.36835, 147.65148
  55.38837, 146.88239
  55.40839, 155.44836
  55.42841, 156.48772
  55.44843, 148.79043
  55.46845, 152.42992
  55.48847, 154.11486
  55.50849, 142.89788
  55.52851, 150.61543
  55.54853, 153.09240
  55.56855, 143.99734
  55.58857, 147.17685
  55.60859, 152.38498
  55.62861, 151.14520
  55.64863, 162.48513
  55.66866, 154.08781
  55.68867, 151.44240
  55.70870, 152.89238
  55.72872, 145.45795
  55.74874, 158.89860
  55.76876, 155.66061
  55.78878, 155.26977
  55.80880, 150.73999
  55.82882, 147.86077
  55.84884, 151.41101
  55.86886, 157.41287
  55.88888, 155.23171
  55.90890, 159.36566
  55.92892, 147.06452
  55.94894, 147.64499
  55.96896, 148.04150
  55.98898, 146.71316
  56.00901, 148.26127
  56.02903, 147.12650
  56.04905, 146.66743
  56.06907, 149.66509
  56.08909, 154.20270
  56.10911, 153.46162
  56.12913, 146.49783
  56.14915, 147.55995
  56.16917, 148.89197
  56.18919, 150.30284
  56.20921, 153.80646
  56.22923, 148.41661
  56.24925, 146.10618
  56.26927, 146.43858
  56.28929, 144.52654
  56.30932, 155.01945
  56.32934, 149.48343
  56.34936, 147.97988
  56.36938, 139.80395
  56.38940, 151.78988
  56.40942, 155.87623
  56.42944, 151.43235
  56.44946, 149.46733
  56.46948, 145.27624
  56.48950, 153.41467
  56.50952, 155.63548
  56.52954, 146.10958
  56.54956, 151.10733
  56.56959, 144.72160
  56.58961, 147.52937
  56.60963, 144.75220
  56.62965, 144.82609
  56.64967, 152.80794
  56.66969, 146.03502
  56.68971, 144.37297
  56.70973, 144.10501
  56.72975, 142.71649
  56.74977, 153.01529
  56.76979, 150.48401
  56.78981, 146.28215
  56.80983, 151.38784
  56.82986, 142.84869
  56.84988, 151.12940
  56.86990, 152.93126
  56.88992, 156.05420
  56.90994, 150.05948
  56.92996, 151.70896
  56.94998, 149.09793
  56.97000, 147.47262
  56.99002, 149.54163
  57.01004, 150.70750
  57.03006, 149.51892
  57.05008, 151.23492
  57.07011, 156.53025
  57.09013, 146.60567
  57.11015, 143.31764
  57.13017, 148.61750
  57.15019, 143.81604
  57.17021, 151.43036
  57.19023, 151.65679
  57.21025, 150.50238
  57.23027, 147.13216
  57.25029, 151.80976
  57.27031, 147.60828
  57.29034, 147.75336
  57.31036, 140.71173
  57.33038, 148.18390
  57.35040, 144.21178
  57.37042, 151.28869
  57.39044, 146.60583
  57.41046, 148.81387
  57.43048, 140.79145
  57.45050, 151.88233
  57.47052, 160.06251
  57.49054, 149.80497
  57.51056, 147.77051
  57.53059, 155.42410
  57.55061, 149.96542
  57.57063, 144.62888
  57.59065, 143.36673
  57.61067, 140.62556
  57.63069, 148.35074
  57.65071, 144.91109
  57.67073, 140.70869
  57.69075, 148.87883
  57.71078, 148.70161
  57.73080, 130.40979
  57.75082, 135.15716
  57.77084, 139.20388
  57.79086, 143.20827
  57.81088, 149.18595
  57.83090, 145.56139
  57.85092, 145.28355
  57.87094, 146.31652
  57.89096, 150.35848
  57.91099, 144.34233
  57.93101, 148.39499
  57.95103, 139.23011
  57.97105, 148.37008
  57.99107, 137.61392
  58.01109, 140.48042
  58.03111, 141.86346
  58.05113, 148.26374
  58.07115, 146.71361
  58.09117, 143.87550
  58.11119, 138.43467
  58.13122, 134.59233
  58.15124, 154.34066
  58.17126, 151.19538
  58.19128, 138.95983
  58.21130, 142.20764
  58.23132, 140.02098
  58.25134, 143.61629
  58.27136, 140.77888
  58.29138, 150.62813
  58.31141, 145.65302
  58.33143, 143.40423
  58.35145, 139.80532
  58.37147, 142.98565
  58.39149, 141.16192
  58.41151, 138.48452
  58.43153, 148.27319
  58.45155, 151.40350
  58.47158, 146.98237
  58.49160, 139.26471
  58.51162, 153.60733
  58.53164, 151.90239
  58.55166, 143.27371
  58.57168, 139.14763
  58.59170, 143.84875
  58.61172, 142.41698
  58.63174, 139.04399
  58.65176, 143.49320
  58.67179, 146.66633
  58.69181, 140.46728
  58.71183, 139.47508
  58.73185, 146.48422
  58.75187, 145.87388
  58.77189, 137.56612
  58.79191, 136.27097
  58.81194, 138.47070
  58.83196, 145.44673
  58.85198, 138.68585
  58.87200, 140.34379
  58.89202, 141.17984
  58.91204, 145.34264
  58.93206, 143.65495
  58.95208, 141.89983
  58.97210, 137.88000
  58.99213, 134.69912
  59.01215, 140.94558
  59.03217, 142.86871
  59.05219, 149.85115
  59.07221, 140.89301
  59.09223, 139.22756
  59.11225, 148.15955
  59.13227, 146.31165
  59.15230, 142.22904
  59.17232, 143.09843
  59.19234, 135.93868
  59.21236, 133.15987
  59.23238, 138.00514
  59.25240, 142.70971
  59.27242, 139.87493
  59.29244, 142.44811
  59.31247, 149.05040
  59.33249, 138.62281
  59.35251, 137.64756
  59.37253, 146.92858
  59.39255, 136.38562
  59.41257, 137.12828
  59.43259, 143.86961
  59.45262, 137.30962
  59.47264, 144.50151
  59.49266, 140.54245
  59.51268, 141.75711
  59.53270, 135.37543
  59.55272, 141.45636
  59.57274, 142.46725
  59.59277, 137.23212
  59.61279, 138.52078
  59.63281, 138.04556
  59.65283, 129.88630
  59.67285, 142.74774
  59.69287, 144.83311
  59.71289, 136.24356
  59.73291, 139.44869
  59.75294, 138.59069
  59.77296, 140.77781
  59.79298, 144.79456
  59.81300, 138.13129
  59.83302, 139.04027
  59.85304, 139.64086
  59.87307, 142.35875
  59.89309, 140.37891
  59.91311, 139.12018
  59.93313, 143.94524
  59.95315, 145.30951
  59.97317, 135.46863
  59.99319, 138.52208
  60.01321, 137.71483
  60.03324, 141.94637
  60.05326, 140.25642
  60.07328, 141.51243
  60.09330, 139.78363
  60.11332, 140.56031
  60.13334, 140.57327
  60.15336, 132.51994
  60.17339, 137.77330
  60.19341, 141.86179
  60.21343, 136.16183
  60.23345, 139.55017
  60.25347, 140.05908
  60.27349, 141.40363
  60.29352, 141.03085
  60.31354, 144.07109
  60.33356, 141.74867
  60.35358, 137.91150
  60.37360, 133.38737
  60.39362, 136.55275
  60.41364, 133.01292
  60.43367, 131.93504
  60.45369, 133.32360
  60.47371, 129.13788
  60.49373, 139.05950
  60.51375, 140.81575
  60.53377, 136.50215
  60.55380, 135.29969
  60.57382, 138.19694
  60.59384, 144.27730
  60.61386, 136.07328
  60.63388, 138.35523
  60.65390, 142.34488
  60.67393, 146.72578
  60.69395, 135.58644
  60.71397, 146.37249
  60.73399, 143.79289
  60.75401, 137.91358
  60.77403, 145.42980
  60.79406, 141.46870
  60.81408, 133.37767
  60.83410, 127.79819
  60.85412, 133.60679
  60.87414, 141.56742
  60.89416, 141.68237
  60.91419, 132.05017
  60.93421, 135.96218
  60.95423, 138.44033
  60.97425, 141.89074
  60.99427, 145.75739
  61.01429, 140.06292
  61.03431, 135.07098
  61.05434, 142.71862
  61.07436, 134.32468
  61.09438, 133.44281
  61.11440, 145.46140
  61.13442, 140.20975
  61.15445, 144.03424
  61.17447, 132.32325
  61.19449, 137.43286
  61.21451, 133.53711
  61.23453, 136.44224
  61.25455, 134.92849
  61.27458, 135.16435
  61.29460, 128.52394
  61.31462, 139.15104
  61.33464, 139.72471
  61.35466, 135.77546
  61.37468, 144.81143
  61.39471, 137.34409
  61.41473, 137.79552
  61.43475, 141.12861
  61.45477, 146.19218
  61.47479, 137.89701
  61.49482, 140.35665
  61.51484, 136.57407
  61.53486, 140.98867
  61.55488, 135.40525
  61.57490, 135.72777
  61.59492, 136.64784
  61.61495, 141.49270
  61.63497, 137.15741
  61.65499, 140.20689
  61.67501, 141.65013
  61.69503, 136.62259
  61.71506, 129.67819
  61.73508, 128.61777
  61.75510, 135.64247
  61.77512, 135.37138
  61.79514, 132.79705
  61.81516, 126.77862
  61.83519, 137.66874
  61.85521, 142.41782
  61.87523, 137.43650
  61.89525, 134.37843
  61.91527, 135.55790
  61.93530, 130.12078
  61.95532, 134.36007
  61.97534, 137.44029
  61.99536, 140.79977
  62.01538, 132.81561
  62.03541, 130.15325
  62.05543, 133.10164
  62.07545, 137.66500
  62.09547, 129.70538
  62.11549, 132.34342
  62.13551, 142.35277
  62.15554, 138.39509
  62.17556, 128.42874
  62.19558, 136.66735
  62.21560, 133.78292
  62.23562, 135.77998
  62.25565, 135.39907
  62.27567, 143.34662
  62.29569, 143.91089
  62.31571, 132.22593
  62.33573, 133.04670
  62.35576, 135.92697
  62.37578, 136.07692
  62.39580, 135.93407
  62.41582, 136.97682
  62.43585, 131.26928
  62.45587, 141.74084
  62.47589, 129.88876
  62.49591, 136.17234
  62.51593, 139.62959
  62.53595, 137.31138
  62.55598, 141.95588
  62.57600, 135.44804
  62.59602, 130.42751
  62.61604, 135.08398
  62.63607, 136.57319
  62.65609, 137.96965
  62.67611, 132.20865
  62.69613, 133.77693
  62.71615, 135.60169
  62.73618, 136.67242
  62.75620, 136.30361
  62.77622, 132.19506
  62.79624, 133.03963
  62.81626, 134.15634
  62.83629, 133.07639
  62.85631, 137.30999
  62.87633, 139.36120
  62.89635, 138.46171
  62.91637, 134.84247
  62.93640, 134.15698
  62.95642, 134.79119
  62.97644, 127.62014
  62.99646, 132.08720
  63.01648, 134.46956
  63.03651, 138.09998
  63.05653, 138.32844
  63.07655, 135.04537
  63.09657, 137.32097
  63.11660, 139.13878
  63.13662, 135.51546
  63.15664, 141.58425
  63.17666, 134.90816
  63.19668, 128.48771
  63.21671, 138.20164
  63.23673, 129.07548
  63.25675, 134.06541
  63.27677, 132.92602
  63.29679, 137.18640
  63.31682, 132.79260
  63.33684, 134.30662
  63.35686, 137.12455
  63.37688, 135.31641
  63.39691, 132.90182
  63.41693, 135.48680
  63.43695, 140.33097
  63.45697, 133.89875
  63.47700, 135.74210
  63.49702, 131.11541
  63.51704, 139.48257
  63.53706, 137.08991
  63.55708, 133.27353
  63.57711, 132.08457
  63.59713, 136.19102
  63.61715, 132.25836
  63.63717, 135.00648
  63.65720, 136.99021
  63.67722, 131.49476
  63.69724, 140.87721
  63.71726, 128.76178
  63.73729, 128.87372
  63.75731, 133.70301
  63.77733, 125.47227
  63.79735, 133.61654
  63.81737, 138.77945
  63.83740, 135.84849
  63.85742, 141.23545
  63.87744, 140.75266
  63.89746, 132.38284
  63.91749, 131.93744
  63.93751, 130.86930
  63.95753, 132.90211
  63.97755, 131.20537
  63.99758, 131.49253
  64.01760, 132.79174
  64.03762, 133.65137
  64.05764, 134.70633
  64.07767, 139.29163
  64.09769, 137.47866
  64.11771, 128.17485
  64.13773, 135.07029
  64.15775, 134.46269
  64.17778, 139.39333
  64.19780, 139.91179
  64.21782, 132.52578
  64.23785, 137.02356
  64.25787, 142.50952
  64.27789, 141.26206
  64.29791, 131.75925
  64.31793, 135.95964
  64.33796, 137.21626
  64.35798, 140.44968
  64.37800, 139.60868
  64.39802, 136.43718
  64.41805, 143.77845
  64.43807, 154.40076
  64.45809, 142.58857
  64.47811, 140.95601
  64.49814, 156.75987
  64.51816, 153.89937
  64.53818, 140.46059
  64.55820, 146.87382
  64.57823, 147.97305
  64.59825, 155.83433
  64.61827, 164.54088
  64.63829, 166.59799
  64.65832, 176.52897
  64.67834, 177.59678
  64.69836, 176.84860
  64.71839, 188.40848
  64.73841, 189.10075
  64.75843, 194.08516
  64.77845, 199.39219
  64.79848, 218.14364
  64.81850, 225.88467
  64.83852, 248.53569
  64.85854, 255.26313
  64.87857, 282.96207
  64.89859, 304.57720
  64.91861, 340.29023
  64.93863, 384.52095
  64.95866, 415.35021
  64.97868, 466.38365
  64.99870, 507.19299
  65.01872, 528.63056
  65.03875, 531.59255
  65.05877, 513.97663
  65.07879, 507.08832
  65.09881, 467.50474
  65.11884, 449.09758
  65.13886, 439.79724
  65.15888, 414.96123
  65.17890, 417.21672
  65.19893, 402.49950
  65.21895, 384.74813
  65.23897, 379.23119
  65.25900, 339.01457
  65.27902, 311.72218
  65.29904, 295.55720
  65.31906, 264.83853
  65.33909, 246.22135
  65.35911, 228.56388
  65.37913, 221.40452
  65.39916, 202.81216
  65.41918, 190.88895
  65.43920, 185.32165
  65.45922, 175.97251
  65.47925, 163.78946
  65.49927, 169.07706
  65.51929, 164.72732
  65.53931, 153.59028
  65.55934, 153.63424
  65.57936, 155.60037
  65.59938, 150.10726
  65.61941, 150.14459
  65.63943, 153.27509
  65.65945, 142.56295
  65.67947, 144.64051
  65.69950, 143.15664
  65.71952, 145.10880
  65.73954, 141.82800
  65.75957, 138.95759
  65.77959, 140.68429
  65.79961, 137.69632
  65.81963, 135.52673
  65.83966, 134.57272
  65.85968, 144.04671
  65.87970, 136.47257
  65.89972, 136.67449
  65.91975, 128.67771
  65.93977, 135.03615
  65.95979, 132.96087
  65.97982, 129.60519
  65.99984, 130.11551
  66.01986, 134.05608
  66.03988, 130.31434
  66.05991, 130.19763
  66.07993, 134.98120
  66.09995, 133.64158
  66.11998, 136.30525
  66.14000, 129.91093
  66.16002, 124.00946
  66.18004, 125.71615
  66.20007, 127.63341
  66.22009, 126.06306
  66.24011, 123.20994
  66.26014, 128.22736
  66.28016, 115.77683
  66.30018, 130.42163
  66.32021, 131.06870
  66.34023, 134.34137
  66.36025, 124.03798
  66.38027, 127.43199
  66.40030, 134.71086
  66.42032, 131.21686
  66.44034, 126.45539
  66.46037, 125.87235
  66.48039, 126.39617
  66.50041, 125.85836
  66.52044, 127.64991
  66.54046, 131.32723
  66.56048, 133.04133
  66.58051, 120.31792
  66.60053, 124.48081
  66.62055, 128.10671
  66.64057, 124.92731
  66.66060, 128.77065
  66.68062, 133.12143
  66.70064, 127.94593
  66.72067, 130.38084
  66.74069, 127.94720
  66.76071, 131.86581
  66.78074, 131.79422
  66.80076, 131.61150
  66.82078, 128.86184
  66.84080, 130.56799
  66.86083, 123.87529
  66.88085, 130.28720
  66.90087, 126.36141
  66.92090, 126.87966
  66.94092, 129.58764
  66.96094, 127.06331
  66.98097, 129.45568
  67.00099, 126.93155
  67.02101, 134.81719
  67.04103, 126.09441
  67.06106, 126.47577
  67.08108, 122.77022
  67.10111, 123.88070
  67.12113, 123.76301
  67.14115, 129.57885
  67.16118, 133.16501
  67.18120, 125.82827
  67.20122, 126.51106
  67.22124, 127.54025
  67.24127, 119.63396
  67.26129, 126.61988
  67.28131, 128.12201
  67.30134, 120.52367
  67.32136, 125.79680
  67.34138, 128.85093
  67.36141, 121.84617
  67.38143, 123.93746
  67.40145, 123.11102
  67.42148, 127.52061
  67.44150, 123.87612
  67.46152, 134.40022
  67.48155, 132.52381
  67.50157, 123.91635
  67.52159, 127.50437
  67.54162, 124.97964
  67.56164, 126.30567
  67.58166, 122.73423
  67.60169, 123.42521
  67.62171, 124.71884
  67.64173, 123.23092
  67.66176, 123.76909
  67.68178, 129.61293
  67.70180, 130.25663
  67.72183, 132.29357
  67.74185, 124.24266
  67.76187, 129.96877
  67.78190, 125.25245
  67.80192, 125.81341
  67.82194, 133.24565
  67.84197, 121.36885
  67.86199, 118.49951
  67.88201, 124.01943
  67.90204, 125.57340
  67.92206, 124.84416
  67.94208, 126.14806
  67.96211, 130.66519
  67.98213, 127.10885
  68.00215, 127.68942
  68.02218, 127.27210
  68.04220, 128.34760
  68.06222, 119.54746
  68.08225, 116.71704
  68.10227, 119.66723
  68.12229, 129.54775
  68.14232, 122.46622
  68.16234, 126.86062
  68.18236, 126.48484
  68.20239, 121.54910
  68.22241, 124.24917
  68.24243, 125.19894
  68.26246, 121.52286
  68.28248, 128.47247
  68.30251, 125.70714
  68.32253, 124.69109
  68.34255, 120.39374
  68.36258, 124.70146
  68.38260, 123.76867
  68.40262, 114.26057
  68.42265, 118.36411
  68.44267, 129.20074
  68.46269, 127.50042
  68.48272, 119.73798
  68.50274, 122.56224
  68.52276, 122.27375
  68.54279, 122.94744
  68.56281, 123.66173
  68.58283, 125.96279
  68.60286, 132.63048
  68.62288, 127.50031
  68.64290, 126.85970
  68.66293, 121.60182
  68.68295, 123.30075
  68.70298, 119.53667
  68.72300, 121.68663
  68.74302, 127.28994
  68.76305, 121.63286
  68.78307, 122.46683
  68.80310, 122.57017
  68.82312, 115.85814
  68.84314, 125.23170
  68.86317, 118.74190
  68.88319, 124.91537
  68.90321, 120.03888
  68.92324, 123.93080
  68.94326, 122.78215
  68.96328, 117.36339
  68.98331, 120.51950
  69.00333, 125.82191
  69.02335, 126.47709
  69.04338, 119.49296
  69.06340, 124.60063
  69.08343, 116.50912
  69.10345, 121.26665
  69.12347, 125.39735
  69.14350, 127.47235
  69.16352, 126.14769
  69.18355, 121.41879
  69.20357, 120.42935
  69.22359, 123.61672
  69.24362, 120.50366
  69.26364, 129.93419
  69.28366, 122.60724
  69.30369, 121.69715
  69.32371, 126.31413
  69.34373, 117.60592
  69.36376, 119.04408
  69.38378, 118.95104
  69.40381, 123.84339
  69.42383, 125.35773
  69.44385, 123.09819
  69.46388, 118.28038
  69.48390, 115.21093
  69.50393, 121.09549
  69.52395, 119.47707
  69.54397, 122.77194
  69.56400, 127.17408
  69.58402, 122.22569
  69.60405, 121.74032
  69.62407, 131.29339
  69.64409, 120.17111
  69.66412, 126.20166
  69.68414, 129.81335
  69.70416, 118.16896
  69.72419, 121.91129
  69.74421, 124.58959
  69.76424, 125.46507
  69.78426, 122.33669
  69.80428, 128.90786
  69.82431, 124.89492
  69.84433, 117.02530
  69.86436, 122.70838
  69.88438, 120.59407
  69.90440, 119.83002
  69.92443, 118.46708
  69.94445, 119.79093
  69.96448, 119.87285
  69.98450, 118.66150
  70.00452, 125.14829
  70.02455, 118.32183
  70.04457, 123.93655
  70.06460, 117.08955
  70.08462, 123.59331
  70.10464, 126.11972
  70.12467, 128.81531
  70.14469, 125.54335
  70.16472, 118.67928
  70.18474, 127.76558
  70.20476, 124.91353
  70.22479, 126.15355
  70.24481, 118.60890
  70.26484, 119.01989
  70.28486, 118.19655
  70.30488, 122.02780
  70.32491, 125.37954
  70.34493, 123.59640
  70.36496, 126.00823
  70.38498, 123.91291
  70.40500, 120.77001
  70.42503, 116.39192
  70.44505, 113.19948
  70.46508, 118.58672
  70.48510, 124.30917
  70.50513, 122.36711
  70.52515, 127.33995
  70.54517, 121.51660
  70.56520, 121.53816
  70.58522, 120.55090
  70.60525, 117.22717
  70.62527, 116.08265
  70.64529, 118.36216
  70.66532, 126.47687
  70.68534, 121.38202
  70.70537, 109.16561
  70.72539, 120.38816
  70.74542, 119.74346
  70.76544, 116.61899
  70.78546, 120.87627
  70.80549, 125.12943
  70.82551, 122.75589
  70.84554, 118.23042
  70.86556, 121.18499
  70.88558, 119.23699
  70.90561, 121.99338
  70.92563, 116.92046
  70.94566, 122.85069
  70.96568, 131.85432
  70.98571, 125.33429
  71.00573, 122.14595
  71.02575, 128.90425
  71.04578, 124.20402
  71.06580, 119.81261
  71.08583, 130.37960
  71.10585, 119.99273
  71.12588, 123.25485
  71.14590, 123.19120
  71.16592, 126.44718
  71.18595, 114.22956
  71.20597, 118.42015
  71.22600, 118.76971
  71.24602, 114.20299
  71.26605, 121.55261
  71.28607, 116.87711
  71.30609, 122.29750
  71.32612, 118.32650
  71.34614, 115.53434
  71.36617, 119.98931
  71.38619, 119.43869
  71.40622, 120.83009
  71.42624, 122.05830
  71.44627, 119.49775
  71.46629, 118.42478
  71.48631, 118.42614
  71.50634, 124.67933
  71.52636, 123.20918
  71.54639, 117.98665
  71.56641, 125.06018
  71.58644, 122.79203
  71.60646, 117.90651
  71.62649, 119.49044
  71.64651, 119.87006
  71.66653, 125.79413
  71.68656, 124.73387
  71.70658, 116.60529
  71.72661, 118.00055
  71.74663, 116.04479
  71.76666, 121.12555
  71.78668, 117.45519
  71.80671, 124.21798
  71.82673, 124.81205
  71.84675, 128.05710
  71.86678, 120.18076
  71.88680, 119.57445
  71.90683, 123.92416
  71.92685, 122.93787
  71.94688, 117.20493
  71.96690, 118.58636
  71.98693, 128.73639
  72.00695, 117.65896
  72.02698, 119.86384
  72.04700, 120.07395
  72.06703, 120.03131
  72.08705, 121.14597
  72.10707, 116.14114
  72.12710, 124.92931
  72.14712, 117.47768
  72.16715, 119.37099
  72.18717, 122.92784
  72.20720, 118.53481
  72.22722, 120.41834
  72.24725, 122.70083
  72.26727, 123.73075
  72.28730, 127.37218
  72.30732, 120.15680
  72.32735, 118.10535
  72.34737, 121.76312
  72.36740, 113.75195
  72.38742, 119.82536
  72.40745, 122.39965
  72.42747, 117.40256
  72.44749, 118.78947
  72.46752, 121.05463
  72.48754, 118.33563
  72.50757, 123.70522
  72.52759, 110.49992
  72.54762, 118.85568
  72.56764, 120.33923
  72.58767, 118.97280
  72.60769, 123.29169
  72.62772, 120.93089
  72.64774, 116.56221
  72.66777, 117.37332
  72.68779, 116.67326
  72.70782, 117.02510
  72.72784, 122.36241
  72.74787, 119.78219
  72.76789, 121.77801
  72.78792, 119.50450
  72.80794, 116.11182
  72.82797, 116.57924
  72.84799, 116.56365
  72.86802, 121.80211
  72.88804, 116.95110
  72.90806, 123.53994
  72.92809, 120.83836
  72.94812, 121.36416
  72.96814, 113.29468
  72.98816, 121.27999
  73.00819, 117.27517
  73.02821, 123.05874
  73.04824, 119.04341
  73.06826, 115.57507
  73.08829, 124.61430
  73.10831, 122.25553
  73.12834, 117.67824
  73.14836, 121.58786
  73.16839, 120.76729
  73.18841, 115.55818
  73.20844, 116.31530
  73.22846, 120.15132
  73.24849, 122.81317
  73.26851, 129.75087
  73.28854, 125.93694
  73.30856, 120.13305
  73.32859, 121.32537
  73.34861, 124.79196
  73.36864, 120.03645
  73.38866, 121.23059
  73.40869, 114.30898
  73.42871, 119.17029
  73.44874, 117.63075
  73.46876, 117.44648
  73.48879, 114.09313
  73.50881, 112.06295
  73.52884, 119.67917
  73.54886, 119.46650
  73.56889, 113.84601
  73.58891, 116.82831
  73.60894, 113.93041
  73.62896, 121.22768
  73.64899, 108.20248
  73.66902, 116.21278
  73.68904, 119.73658
  73.70907, 119.96188
  73.72909, 117.53553
  73.74912, 119.39004
  73.76914, 117.27640
  73.78917, 115.20546
  73.80919, 118.90198
  73.82922, 119.46978
  73.84924, 124.83001
  73.86927, 118.10082
  73.88929, 116.74709
  73.90932, 114.05471
  73.92934, 114.29120
  73.94937, 113.64583
  73.96939, 109.72350
  73.98942, 118.51088
  74.00944, 124.17634
  74.02947, 116.95448
  74.04949, 124.47638
  74.06952, 121.70853
  74.08954, 110.73006
  74.10957, 116.68195
  74.12959, 118.66528
  74.14962, 121.22675
  74.16964, 116.35594
  74.18967, 120.83837
  74.20970, 121.73369
  74.22972, 116.21789
  74.24975, 116.62069
  74.26977, 114.72048
  74.28980, 114.19823
  74.30982, 113.10647
  74.32985, 123.55733
  74.34987, 109.33839
  74.36990, 114.88373
  74.38992, 115.72993
  74.40995, 121.49745
  74.42998, 118.41060
  74.45000, 117.74034
  74.47003, 113.22526
  74.49005, 117.95388
  74.51008, 121.08329
  74.53010, 124.19048
  74.55013, 120.19455
  74.57015, 116.55539
  74.59018, 117.84906
  74.61020, 122.49381
  74.63023, 120.63601
  74.65025, 114.33684
  74.67028, 112.72492
  74.69031, 118.39922
  74.71033, 115.18173
  74.73036, 121.81429
  74.75038, 115.33090
  74.77041, 110.91708
  74.79043, 116.63130
  74.81046, 116.43106
  74.83048, 118.59828
  74.85051, 124.07118
  74.87053, 118.17821
  74.89056, 110.61561
  74.91059, 116.61659
  74.93061, 120.31413
  74.95064, 113.82952
  74.97066, 116.41901
  74.99069, 118.24235
  75.01071, 125.65976
  75.03074, 122.62363
  75.05076, 120.51268
  75.07079, 121.18714
  75.09082, 127.86217
  75.11084, 121.48684
  75.13087, 114.81766
  75.15089, 114.06871
  75.17092, 116.66318
  75.19094, 114.56517
  75.21097, 117.62776
  75.23100, 121.49316
  75.25102, 119.03344
  75.27105, 120.15784
  75.29107, 114.41770
  75.31110, 119.75211
  75.33112, 111.29051
  75.35115, 113.18559
  75.37118, 114.91978
  75.39120, 115.53764
  75.41123, 116.57562
  75.43125, 115.90019
  75.45128, 114.26524
  75.47130, 120.36301
  75.49133, 119.52532
  75.51135, 120.58720
  75.53138, 116.37226
  75.55141, 112.73301
  75.57143, 105.87770
  75.59146, 112.92929
  75.61148, 121.63950
  75.63151, 115.63866
  75.65153, 111.67348
  75.67156, 115.76500
  75.69159, 116.99635
  75.71161, 112.99537
  75.73164, 123.94166
  75.75166, 119.97164
  75.77169, 120.90875
  75.79172, 117.70810
  75.81174, 111.32903
  75.83177, 114.57460
  75.85179, 118.58316
  75.87182, 111.83040
  75.89185, 112.25313
  75.91187, 116.64511
  75.93190, 120.06814
  75.95192, 114.16537
  75.97195, 114.58583
  75.99197, 117.16509
  76.01200, 111.02801
  76.03203, 119.05089
  76.05205, 116.73565
  76.07208, 116.30429
  76.09210, 112.38870
  76.11213, 116.72063
  76.13216, 116.63804
  76.15218, 116.64249
  76.17221, 116.67440
  76.19223, 115.15613
  76.21226, 111.39439
  76.23229, 116.12408
  76.25231, 114.62753
  76.27234, 116.52357
  76.29236, 115.71498
  76.31239, 117.40870
  76.33242, 115.67938
  76.35244, 113.90652
  76.37247, 114.65919
  76.39250, 122.62936
  76.41252, 125.03481
  76.43255, 115.08648
  76.45257, 113.44078
  76.47260, 116.59176
  76.49263, 120.95090
  76.51265, 116.73495
  76.53268, 116.05661
  76.55270, 129.75884
  76.57273, 123.66469
  76.59276, 115.50059
  76.61278, 119.65545
  76.63281, 120.05986
  76.65283, 119.76031
  76.67286, 115.61182
  76.69289, 113.98877
  76.71291, 113.99066
  76.73294, 113.45271
  76.75297, 116.80859
  76.77299, 121.77998
  76.79302, 119.17252
  76.81304, 125.62489
  76.83307, 123.87774
  76.85310, 116.42661
  76.87312, 116.65063
  76.89315, 116.89597
  76.91318, 112.03369
  76.93320, 121.36720
  76.95323, 126.22354
  76.97325, 114.54781
  76.99328, 117.64992
  77.01331, 114.89261
  77.03333, 116.73896
  77.05336, 115.11529
  77.07339, 121.52252
  77.09341, 116.80735
  77.11344, 109.70461
  77.13346, 115.57762
  77.15349, 112.49845
  77.17352, 118.72795
  77.19354, 117.37217
  77.21357, 126.84983
  77.23360, 121.40683
  77.25362, 119.16646
  77.27365, 117.84559
  77.29367, 118.27938
  77.31370, 118.96655
  77.33373, 118.96736
  77.35375, 113.38001
  77.37378, 117.38530
  77.39381, 118.31562
  77.41383, 117.87592
  77.43386, 116.63478
  77.45389, 122.25344
  77.47391, 116.49233
  77.49394, 115.90554
  77.51397, 116.35057
  77.53399, 118.40258
  77.55402, 126.63901
  77.57405, 121.70591
  77.59407, 117.26213
  77.61410, 116.80097
  77.63412, 124.15050
  77.65415, 115.28388
  77.67418, 114.54330
  77.69420, 116.87226
  77.71423, 116.57208
  77.73426, 115.22428
  77.75428, 118.08801
  77.77431, 118.41823
  77.79434, 115.57608
  77.81436, 112.05926
  77.83439, 115.09562
  77.85442, 116.89349
  77.87444, 116.81111
  77.89447, 115.62343
  77.91450, 114.06455
  77.93452, 115.88431
  77.95455, 115.94767
  77.97458, 119.12065
  77.99460, 113.85594
  78.01463, 113.18308
  78.03466, 112.90360
  78.05468, 120.85501
  78.07471, 112.13706
  78.09474, 113.72024
  78.11476, 117.95715
  78.13479, 111.70696
  78.15482, 121.98018
  78.17484, 115.79264
  78.19487, 122.73054
  78.21490, 117.20904
  78.23492, 118.49914
  78.25495, 116.35776
  78.27498, 113.81009
  78.29500, 115.17136
  78.31503, 117.94902
  78.33506, 114.32269
  78.35508, 117.90234
  78.37511, 118.09838
  78.39514, 117.26370
  78.41516, 117.94892
  78.43519, 118.67558
  78.45522, 122.13605
  78.47524, 111.75207
  78.49527, 116.49616
  78.51530, 115.84573
  78.53532, 119.24534
  78.55535, 114.92371
  78.57538, 119.02679
  78.59541, 118.62019
  78.61543, 120.10594
  78.63546, 117.46324
  78.65549, 119.13638
  78.67551, 115.59854
  78.69554, 113.35103
  78.71557, 115.53226
  78.73559, 116.32768
  78.75562, 112.73684
  78.77565, 117.46163
  78.79568, 118.07644
  78.81570, 117.71795
  78.83573, 116.83792
  78.85576, 115.92457
  78.87578, 114.70837
  78.89581, 122.07177
  78.91584, 113.42195
  78.93586, 115.77437
  78.95589, 118.64778
  78.97592, 122.07517
  78.99595, 118.08217
  79.01597, 119.63516
  79.03600, 113.53387
  79.05603, 117.56895
  79.07605, 119.32849
  79.09608, 121.29216
  79.11611, 112.37793
  79.13613, 117.98033
  79.15616, 111.39908
  79.17619, 115.96950
  79.19622, 115.17232
  79.21624, 120.11677
  79.23627, 115.57922
  79.25630, 116.64043
  79.27632, 121.01291
  79.29635, 119.98482
  79.31638, 112.28576
  79.33640, 110.51480
  79.35643, 114.25304
  79.37646, 112.65518
  79.39649, 114.40416
  79.41651, 113.90109
  79.43654, 113.82086
  79.45657, 110.86078
  79.47660, 113.03921
  79.49662, 116.58067
  79.51665, 114.54300
  79.53668, 112.70710
  79.55670, 108.67230
  79.57673, 120.75391
  79.59676, 115.52151
  79.61679, 120.78994
  79.63681, 120.32018
  79.65684, 114.91107
  79.67687, 114.50685
  79.69689, 117.35092
  79.71692, 113.34157
  79.73695, 122.39694
  79.75698, 121.97526
  79.77700, 115.15620
  79.79703, 112.66858
  79.81706, 114.55388
  79.83709, 114.30366
  79.85711, 120.81281
  79.87714, 120.37743
  79.89717, 120.46760
  79.91720, 116.23528
  79.93722, 118.61614
  79.95725, 116.52817
  79.97728, 122.31708
  79.99731, 115.83657
  80.01733, 118.53843
  80.03736, 122.64025
  80.05739, 118.78112
  80.07741, 114.31969
  80.09744, 112.84229
  80.11747, 111.07895
  80.13750, 120.18651
  80.15753, 115.98251
  80.17755, 124.63306
  80.19758, 122.57133
  80.21761, 117.68446
  80.23763, 114.10427
  80.25766, 118.37139
  80.27769, 123.54106
  80.29772, 117.56144
  80.31775, 117.62208
  80.33777, 122.12597
  80.35780, 115.94468
  80.37783, 123.93542
  80.39786, 115.34747
  80.41788, 111.17915
  80.43791, 119.29465
  80.45794, 120.06126
  80.47797, 120.90482
  80.49799, 121.40688
  80.51802, 126.27540
  80.53805, 117.75628
  80.55808, 118.83637
  80.57810, 113.22461
  80.59813, 114.37390
  80.61816, 116.34263
  80.63819, 117.41607
  80.65822, 118.22617
  80.67824, 120.38886
  80.69827, 123.97149
  80.71830, 122.97088
  80.73833, 116.00607
  80.75835, 116.02520
  80.77838, 112.88470
  80.79841, 115.33760
  80.81844, 118.29067
  80.83847, 122.27147
  80.85849, 113.36553
  80.87852, 114.65455
  80.89855, 125.90852
  80.91858, 121.24063
  80.93860, 116.18948
  80.95863, 117.82299
  80.97866, 118.98543
  80.99869, 119.34123
  81.01872, 117.29968
  81.03874, 117.68548
  81.05877, 123.23774
  81.07880, 127.86778
  81.09883, 120.17637
  81.11885, 118.76259
  81.13888, 123.44585
  81.15891, 122.31061
  81.17894, 120.77520
  81.19897, 118.66282
  81.21899, 115.87251
  81.23902, 117.15406
  81.25905, 122.74258
  81.27908, 126.26761
  81.29911, 129.06621
  81.31913, 124.04573
  81.33916, 122.99977
  81.35919, 125.09305
  81.37922, 125.95763
  81.39924, 116.64573
  81.41927, 121.89045
  81.43930, 125.58671
  81.45933, 121.41114
  81.47936, 119.42509
  81.49939, 126.39446
  81.51941, 128.25532
  81.53944, 128.67771
  81.55947, 131.12859
  81.57950, 131.12573
  81.59952, 130.84813
  81.61955, 137.69388
  81.63958, 138.44952
  81.65961, 139.04502
  81.67964, 134.92823
  81.69967, 132.51358
  81.71969, 139.39831
  81.73972, 153.68178
  81.75975, 138.01535
  81.77978, 142.34449
  81.79981, 139.89683
  81.81984, 144.06855
  81.83986, 140.36065
  81.85989, 145.84792
  81.87992, 161.46380
  81.89995, 154.00539
  81.91998, 155.33958
  81.94000, 164.17323
  81.96003, 170.80549
  81.98006, 175.09011
  82.00009, 187.72301
  82.02012, 194.59085
  82.04015, 200.87049
  82.06017, 209.77532
  82.08020, 233.36263
  82.10023, 240.49282
  82.12026, 260.31435
  82.14029, 292.12298
  82.16032, 319.93513
  82.18034, 339.88488
  82.20037, 373.47852
  82.22040, 427.47510
  82.24043, 483.96007
  82.26046, 569.97667
  82.28049, 656.67895
  82.30051, 697.77512
  82.32054, 778.00286
  82.34057, 817.07789
  82.36060, 824.07092
  82.38063, 795.38936
  82.40066, 745.75159
  82.42068, 702.10127
  82.44071, 644.15335
  82.46074, 592.23042
  82.48077, 571.40408
  82.50080, 557.93628
  82.52083, 536.54293
  82.54085, 546.07104
  82.56088, 551.33453
  82.58091, 542.37439
  82.60094, 533.42106
  82.62097, 503.26058
  82.64100, 478.95300
  82.66103, 436.77112
  82.68105, 389.27929
  82.70108, 356.51824
  82.72111, 308.90958
  82.74114, 287.73261
  82.76117, 267.41740
  82.78120, 242.52636
  82.80123, 227.67482
  82.82126, 225.79766
  82.84128, 197.70347
  82.86131, 180.90417
  82.88134, 184.47426
  82.90137, 179.47030
  82.92140, 162.45064
  82.94143, 159.32686
  82.96145, 162.49939
  82.98148, 157.00729
  83.00151, 142.85923
  83.02154, 148.07371
  83.04157, 135.61250
  83.06160, 141.40261
  83.08163, 143.44223
  83.10166, 136.08916
  83.12169, 135.08842
  83.14171, 133.58777
  83.16174, 134.57344
  83.18177, 137.60659
  83.20180, 133.49126
  83.22183, 133.14152
  83.24186, 130.66501
  83.26189, 126.45470
  83.28192, 122.23899
  83.30194, 124.82766
  83.32197, 125.72207
  83.34200, 126.42324
  83.36203, 119.40361
  83.38206, 126.52754
  83.40209, 123.49470
  83.42212, 126.23966
  83.44215, 126.54579
  83.46218, 123.67193
  83.48220, 119.21304
  83.50223, 118.53628
  83.52226, 114.94227
  83.54229, 118.62973
  83.56232, 123.33572
  83.58235, 119.22931
  83.60238, 114.70000
  83.62241, 114.84562
  83.64244, 121.96017
  83.66246, 116.52515
  83.68249, 119.00627
  83.70252, 115.69765
  83.72255, 117.85046
  83.74258, 112.50405
  83.76261, 112.03527
  83.78264, 118.14213
  83.80267, 121.66521
  83.82270, 117.69318
  83.84272, 117.77748
  83.86275, 114.00143
  83.88278, 120.97565
  83.90281, 116.90692
  83.92284, 124.65596
  83.94287, 112.02566
  83.96290, 107.82699
  83.98293, 121.86974
  84.00296, 119.39762
  84.02299, 121.30105
  84.04302, 120.64145
  84.06305, 116.14923
  84.08308, 115.04357
  84.10310, 115.77428
  84.12313, 113.57726
  84.14316, 111.64743
  84.16319, 116.04229
  84.18322, 111.09425
  84.20325, 115.59334
  84.22328, 112.66541
  84.24331, 111.86130
  84.26334, 111.51957
  84.28337, 111.21825
  84.30340, 113.43794
  84.32343, 115.03529
  84.34345, 112.84422
  84.36349, 121.35558
  84.38351, 117.95302
  84.40354, 112.30746
  84.42357, 117.82107
  84.44360, 113.90694
  84.46363, 117.42030
  84.48366, 120.47796
  84.50369, 115.94207
  84.52372, 116.51942
  84.54375, 112.25230
  84.56378, 120.34364
  84.58381, 116.96549
  84.60384, 117.85252
  84.62387, 117.28477
  84.64390, 115.78967
  84.66393, 114.15706
  84.68395, 112.11297
  84.70398, 110.69656
  84.72401, 114.03870
  84.74404, 114.55916
  84.76407, 113.02016
  84.78410, 115.07196
  84.80413, 113.67173
  84.82416, 118.12279
  84.84419, 117.05461
  84.86422, 110.67763
  84.88425, 113.23942
  84.90428, 113.88860
  84.92431, 108.49645
  84.94434, 113.89447
  84.96437, 112.02022
  84.98440, 109.94312
  85.00443, 114.86205
  85.02446, 113.31161
  85.04449, 118.01956
  85.06452, 111.18276
  85.08455, 106.68634
  85.10458, 112.76999
  85.12460, 116.04640
  85.14463, 116.36959
  85.16466, 111.75161
  85.18469, 111.55392
  85.20472, 109.34409
  85.22475, 110.33993
  85.24478, 116.24069
  85.26481, 118.58865
  85.28484, 107.08276
  85.30487, 111.04544
  85.32490, 114.84762
  85.34493, 112.84498
  85.36496, 115.69023
  85.38499, 112.36467
  85.40502, 115.91322
  85.42505, 116.21887
  85.44508, 116.35428
  85.46511, 105.53401
  85.48514, 111.79778
  85.50517, 115.73643
  85.52520, 115.67009
  85.54523, 115.18812
  85.56526, 119.30704
  85.58529, 113.50732
  85.60532, 108.63725
  85.62535, 116.55093
  85.64538, 114.04418
  85.66541, 110.95681
  85.68544, 111.10676
  85.70547, 107.53879
  85.72550, 109.58944
  85.74553, 112.40254
  85.76556, 118.05980
  85.78559, 118.92030
  85.80562, 114.42530
  85.82565, 112.57716
  85.84568, 105.85289
  85.86571, 118.11100
  85.88574, 114.35562
  85.90577, 114.59821
  85.92580, 121.45523
  85.94583, 118.59244
  85.96586, 111.64539
  85.98589, 114.02005
  86.00592, 109.52530
  86.02595, 114.45630
  86.04598, 109.46908
  86.06601, 115.67221
  86.08604, 116.19480
  86.10607, 112.11200
  86.12610, 110.36871
  86.14613, 110.17244
  86.16616, 106.47491
  86.18619, 109.41146
  86.20622, 107.94197
  86.22625, 113.44656
  86.24628, 107.56246
  86.26631, 112.84433
  86.28634, 118.12568
  86.30637, 109.91864
  86.32640, 114.08481
  86.34643, 116.46699
  86.36646, 112.27210
  86.38649, 115.15223
  86.40652, 111.14929
  86.42655, 109.52428
  86.44658, 107.27624
  86.46661, 115.95022
  86.48664, 114.00730
  86.50667, 109.03934
  86.52670, 106.43249
  86.54674, 111.35449
  86.56677, 106.23523
  86.58680, 108.68004
  86.60683, 114.80219
  86.62686, 111.25091
  86.64689, 111.20685
  86.66692, 112.29643
  86.68695, 108.39153
  86.70698, 108.85004
  86.72701, 112.09103
  86.74704, 114.31649
  86.76707, 116.14264
  86.78710, 111.41396
  86.80713, 113.17543
  86.82716, 110.69285
  86.84719, 111.52414
  86.86722, 111.49877
  86.88725, 114.88160
  86.90728, 107.69648
  86.92731, 107.87838
  86.94735, 109.86377
  86.96737, 113.62685
  86.98740, 116.01202
  87.00744, 109.22118
  87.02747, 108.25353
  87.04750, 114.06307
  87.06753, 112.06280
  87.08756, 109.35418
  87.10759, 108.11139
  87.12762, 113.23413
  87.14765, 111.35896
  87.16768, 106.65891
  87.18771, 114.73520
  87.20774, 108.49948
  87.22777, 107.24703
  87.24780, 112.50032
  87.26784, 111.75072
  87.28787, 107.32412
  87.30790, 114.77815
  87.32793, 105.55513
  87.34796, 111.22803
  87.36799, 114.67275
  87.38802, 107.97660
  87.40805, 102.43083
  87.42808, 110.63261
  87.44811, 114.92339
  87.46814, 116.29388
  87.48817, 118.59959
  87.50820, 116.68647
  87.52824, 114.85770
  87.54827, 109.19188
  87.56830, 107.64947
  87.58833, 114.21796
  87.60836, 117.10861
  87.62839, 117.20586
  87.64842, 113.70507
  87.66845, 110.85605
  87.68848, 106.45937
  87.70851, 108.46629
  87.72854, 105.49810
  87.74857, 110.45162
  87.76861, 112.51397
  87.78864, 110.79778
  87.80867, 114.37902
  87.82870, 106.68492
  87.84873, 112.98744
  87.86876, 117.90963
  87.88879, 114.70260
  87.90882, 109.08124
  87.92885, 115.33375
  87.94889, 107.79606
  87.96892, 107.67726
  87.98895, 115.20466
  88.00898, 116.53238
  88.02901, 114.67440
  88.04904, 104.76754
  88.06907, 108.99052
  88.08910, 112.99406
  88.10913, 114.16984
  88.12916, 114.04922
  88.14920, 119.96252
  88.16923, 114.18886
  88.18926, 112.76749
  88.20929, 116.59573
  88.22932, 122.17223
  88.24935, 113.49993
  88.26938, 107.84560
  88.28941, 112.27320
  88.30945, 113.42454
  88.32948, 105.36446
  88.34951, 116.28584
  88.36954, 105.88568
  88.38957, 112.61071
  88.40960, 109.37980
  88.42963, 106.43969
  88.44967, 107.55427
  88.46970, 111.42589
  88.48973, 101.94614
  88.50976, 109.04230
  88.52979, 107.42117
  88.54982, 104.41418
  88.56985, 107.12543
  88.58989, 108.26163
  88.60992, 110.29013
  88.62995, 109.92827
  88.64998, 115.56420
  88.67001, 111.05292
  88.69004, 111.83889
  88.71007, 113.50089
  88.73010, 110.16471
  88.75014, 111.65969
  88.77017, 110.85635
  88.79020, 117.03371
  88.81023, 117.65724
  88.83026, 107.87171
  88.85029, 109.70497
  88.87032, 105.56633
  88.89036, 108.49624
  88.91039, 115.08847
  88.93042, 110.08507
  88.95045, 104.56958
  88.97048, 105.19964
  88.99051, 111.88163
  89.01055, 113.68096
  89.03058, 115.58093
  89.05061, 108.89325
  89.07064, 107.12373
  89.09067, 107.80890
  89.11070, 112.97273
  89.13074, 108.60804
  89.15077, 105.51172
  89.17080, 107.42969
  89.19083, 109.11895
  89.21086, 113.81354
  89.23090, 106.36214
  89.25093, 110.27784
  89.27096, 115.41501
  89.29099, 113.27093
  89.31102, 117.13623
  89.33105, 114.53534
  89.35109, 111.94391
  89.37112, 107.99755
  89.39115, 104.52288
  89.41118, 110.37687
  89.43121, 110.60443
  89.45125, 113.36763
  89.47128, 107.54939
  89.49131, 106.38550
  89.51134, 107.72141
  89.53137, 106.79024
  89.55140, 106.34338
  89.57144, 109.74380
  89.59147, 112.99248
  89.61150, 114.56624
  89.63153, 111.88135
  89.65157, 109.63196
  89.67160, 103.01111
  89.69163, 111.14708
  89.71166, 108.95836
  89.73169, 104.50100
  89.75173, 111.58776
  89.77176, 113.28465
  89.79179, 113.57693
  89.81182, 111.64322
  89.83185, 112.38695
  89.85189, 109.96865
  89.87192, 105.24149
  89.89195, 115.10570
  89.91198, 111.65530
  89.93201, 107.24681
  89.95205, 109.47857
  89.97208, 102.49209
  89.99211, 109.99662
  90.01214, 104.77685
  90.03217, 111.66587
  90.05221, 105.59009
  90.07224, 112.52212
  90.09227, 113.31085
  90.11230, 115.39558
  90.13234, 109.02898
  90.15237, 115.28463
  90.17240, 111.46196
  90.19243, 109.54535
  90.21246, 107.28656
  90.23250, 107.06689
  90.25253, 104.47967
  90.27256, 114.13794
  90.29260, 105.35471
  90.31263, 108.77970
  90.33266, 107.69818
  90.35269, 104.70662
  90.37272, 103.93179
  90.39276, 105.84062
  90.41279, 110.90885
  90.43282, 108.36162
  90.45285, 104.44428
  90.47289, 103.64497
  90.49292, 111.71627
  90.51295, 107.88361
  90.53298, 109.71204
  90.55302, 109.73776
  90.57305, 103.00445
  90.59308, 108.46616
  90.61311, 105.42912
  90.63315, 110.14866
  90.65318, 112.05114
  90.67321, 111.04465
  90.69324, 105.31316
  90.71328, 110.81044
  90.73331, 108.39490
  90.75334, 103.35450
  90.77337, 107.46121
  90.79341, 107.98168
  90.81344, 102.84361
  90.83347, 100.48959
  90.85351, 100.28144
  90.87354, 112.04620
  90.89357, 111.53752
  90.91360, 110.72525
  90.93364, 110.83703
  90.95367, 109.16251
  90.97370, 109.40100
  90.99373, 110.32467
  91.01377, 112.23071
  91.03380, 112.23814
  91.05383, 105.26382
  91.07386, 111.17321
  91.09390, 107.59078
  91.11393, 109.62356
  91.13396, 108.66520
  91.15400, 107.45043
  91.17403, 111.03913
  91.19406, 108.39024
  91.21410, 103.84969
  91.23413, 103.07468
  91.25416, 104.37445
  91.27419, 106.97149
  91.29423, 102.38898
  91.31426, 114.13150
  91.33429, 107.55481
  91.35432, 110.54094
  91.37436, 108.02544
  91.39439, 106.64697
  91.41442, 110.57379
  91.43446, 106.17644
  91.45449, 109.77268
  91.47452, 106.35276
  91.49456, 105.96287
  91.51459, 111.12602
  91.53462, 110.23656
  91.55465, 110.80005
  91.57469, 108.47014
  91.59472, 109.78004
  91.61475, 110.87844
  91.63479, 107.69013
  91.65482, 102.88127
  91.67485, 103.93960
  91.69489, 110.95921
  91.71492, 110.83947
  91.73495, 106.99764
  91.75499, 103.36991
  91.77502, 112.81161
  91.79505, 112.19096
  91.81509, 108.42971
  91.83512, 114.49530
  91.85515, 114.14666
  91.87519, 107.60091
  91.89522, 114.02711
  91.91525, 111.84327
  91.93529, 110.02470
  91.95532, 110.40326
  91.97535, 111.07668
  91.99539, 106.54717
  92.01542, 105.45510
  92.03545, 112.54518
  92.05549, 106.74650
  92.07552, 113.20628
  92.09555,  99.52295
  92.11559, 106.36341
  92.13562, 108.13817
  92.15565, 106.42271
  92.17569, 107.63060
  92.19572, 106.49342
  92.21575, 114.12708
  92.23579, 110.90828
  92.25582, 109.25183
  92.27585, 107.13854
  92.29589, 109.99644
  92.31592, 102.03220
  92.33595, 102.45573
  92.35599, 112.15330
  92.37602, 108.44189
  92.39605, 103.90876
  92.41609, 101.52953
  92.43612, 109.30554
  92.45616, 109.18049
  92.47619, 108.35398
  92.49622, 113.08279
  92.51626, 103.59768
  92.53629, 101.28646
  92.55632, 105.54437
  92.57636, 101.48100
  92.59639, 107.56081
  92.61642, 104.12055
  92.63646, 107.24037
  92.65649, 106.71629
  92.67653, 108.18309
  92.69656, 110.22973
  92.71659, 107.50413
  92.73663, 104.09068
  92.75666, 109.32390
  92.77669, 103.29168
  92.79673, 102.95993
  92.81676, 112.71504
  92.83680, 109.61404
  92.85683, 107.52445
  92.87686, 106.90780
  92.89690, 107.54628
  92.91693, 112.97853
  92.93697, 107.89457
  92.95700, 112.12108
  92.97703, 106.15399
  92.99707, 107.43874
  93.01710, 105.49935
  93.03714, 114.80180
  93.05717, 112.89912
  93.07720, 111.20889
  93.09724, 105.22059
  93.11727, 104.08323
  93.13731, 105.72384
  93.15734, 106.81628
  93.17737, 102.43360
  93.19741, 102.61046
  93.21744, 107.30765
  93.23748, 105.68132
  93.25751, 110.51613
  93.27755, 101.35076
  93.29758, 108.05964
  93.31761, 110.82794
  93.33765, 105.81910
  93.35768, 109.47626
  93.37772, 100.48848
  93.39775, 103.78617
  93.41778,  99.89890
  93.43782, 103.67243
  93.45785, 109.80959
  93.47789, 108.75672
  93.49792, 102.52563
  93.51795, 107.67376
  93.53799, 105.53941
  93.55802, 106.64080
  93.57806, 108.94282
  93.59809, 103.98334
  93.61813, 107.10399
  93.63816, 104.82996
  93.65820, 103.00801
  93.67823, 102.72042
  93.69826, 108.42521
  93.71830, 109.64337
  93.73833,  99.98291
  93.75837, 112.87024
  93.77840, 111.29338
  93.79844, 104.11366
  93.81847, 107.36304
  93.83851, 104.97451
  93.85854, 107.62374
  93.87858, 105.89953
  93.89861, 109.88288
  93.91864, 106.98795
  93.93868, 102.91796
  93.95871, 105.38986
  93.97875, 110.00022
  93.99878, 108.78369
  94.01882, 101.30259
  94.03885, 100.82838
  94.05889,  99.45311
  94.07892, 101.80355
  94.09895, 108.87632
  94.11899, 105.36344
  94.13902, 107.95125
  94.15906, 104.15594
  94.17909, 107.30873
  94.19913, 111.38134
  94.21916, 110.06120
  94.23920, 106.74988
  94.25923, 109.38489
  94.27927, 113.03549
  94.29930, 106.69336
  94.31934, 110.52232
  94.33937, 111.59559
  94.35941, 107.44872
  94.37944, 110.31558
  94.39948, 106.78179
  94.41951, 113.00619
  94.43955, 113.63236
  94.45958, 106.60588
  94.47961, 113.46170
  94.49965, 104.88349
  94.51969, 111.09391
  94.53972, 106.94275
  94.55976, 106.09014
  94.57979, 106.60503
  94.59983, 106.06898
  94.61986, 103.63783
  94.63990, 105.74924
  94.65993, 103.66893
  94.67997, 108.23589
  94.70000, 104.08803
  94.72004, 113.31093
  94.74007, 103.97213
  94.76010, 101.14594
  94.78014, 105.10423
  94.80018, 105.94363
  94.82021, 108.59080
  94.84025, 111.78718
  94.86028, 114.86984
  94.88032, 105.96489
  94.90035, 116.00792
  94.92039, 108.73150
  94.94042, 104.77182
  94.96046, 106.58999
  94.98049, 105.17367
  95.00053, 110.22216
  95.02056, 113.49067
  95.04060, 111.46681
  95.06063, 108.92987
  95.08067, 107.37252
  95.10070, 111.37012
  95.12074, 106.71764
  95.14078, 105.43188
  95.16081, 108.51968
  95.18084, 104.56535
  95.20088, 106.46331
  95.22092, 102.37643
  95.24095, 102.19206
  95.26099, 104.12634
  95.28102, 106.91529
  95.30106, 106.31889
  95.32109, 107.90419
  95.34113, 109.76335
  95.36116, 106.70357
  95.38120, 107.12476
  95.40124, 104.21069
  95.42127, 102.28747
  95.44131, 103.84701
  95.46134, 102.34571
  95.48138, 108.87928
  95.50141, 108.45216
  95.52145, 100.43561
  95.54149, 103.90116
  95.56152, 112.11857
  95.58156, 109.50279
  95.60159, 104.62561
  95.62163, 105.81073
  95.64166, 109.87752
  95.66170, 103.09196
  95.68173, 109.00064
  95.70177, 107.60517
  95.72181, 107.69254
  95.74184, 101.63844
  95.76188, 105.64393
  95.78191, 104.68870
  95.80195, 104.76553
  95.82199, 100.99440
  95.84202, 102.64944
  95.86206, 106.53166
  95.88209, 105.55089
  95.90213,  99.78520
  95.92216, 101.15540
  95.94220, 106.53053
  95.96224, 109.30345
  95.98227, 101.05353
  96.00231, 103.64389
  96.02234, 103.33467
  96.04238,  99.00097
  96.06241, 102.61181
  96.08245,  97.49764
  96.10249, 105.38945
  96.12252, 107.69290
  96.14256, 114.55597
  96.16259, 110.27795
  96.18263, 111.19907
  96.20267, 108.72410
  96.22270, 109.54564
  96.24274, 103.60541
  96.26278, 105.81723
  96.28281, 101.86647
  96.30285, 104.15714
  96.32289, 105.25373
  96.34292, 113.01794
  96.36296, 109.07452
  96.38299, 105.15069
  96.40303, 105.79691
  96.42307, 109.82892
  96.44310, 107.40391
  96.46314, 109.19037
  96.48317, 108.41711
  96.50321, 105.75406
  96.52325, 103.68476
  96.54328, 107.35516
  96.56332, 101.70077
  96.58336, 104.78538
  96.60339, 106.43592
  96.62343, 108.29558
  96.64347, 106.30729
  96.66350, 101.34501
  96.68354, 110.27445
  96.70357, 106.48457
  96.72361, 107.71423
  96.74365, 108.43257
  96.76368,  97.81869
  96.78372,  99.67730
  96.80376, 104.33580
  96.82379, 101.09449
  96.84383, 100.49472
  96.86387, 105.60353
  96.88390, 102.06234
  96.90394, 104.82428
  96.92398, 107.63464
  96.94401, 105.60361
  96.96405, 102.36155
  96.98409, 106.71889
  97.00412, 110.27223
  97.02416, 106.45053
  97.04420, 106.60149
  97.06423, 110.20286
  97.08427, 101.85822
  97.10431, 109.10983
  97.12434, 104.82767
  97.14438,  99.90256
  97.16442, 103.92564
  97.18445, 105.66645
  97.20449, 102.50961
  97.22453, 107.60297
  97.24456, 102.90254
  97.26460, 108.74686
  97.28464, 105.70239
  97.30467, 107.55797
  97.32471, 108.59850
  97.34475, 110.31791
  97.36478, 107.03126
  97.38482, 101.90162
  97.40486, 107.02476
  97.42490, 104.98377
  97.44493, 110.66566
  97.46497, 107.02012
  97.48501, 104.71198
  97.50504, 101.67270
  97.52508, 108.74544
  97.54512, 103.65973
  97.56515, 102.75820
  97.58519, 106.96775
  97.60523, 104.84558
  97.62526, 107.24332
  97.64530, 108.49501
  97.66534, 109.89103
  97.68538,  99.65720
  97.70541, 103.74173
  97.72545, 101.19751
  97.74549, 107.78788
  97.76553, 108.99176
  97.78556, 104.43855
  97.80560, 109.81577
  97.82564, 105.22995
  97.84568, 108.39822
  97.86571, 106.21535
  97.88575, 107.63604
  97.90579, 103.55266
  97.92582, 109.34911
  97.94586, 106.63330
  97.96590, 105.80451
  97.98593, 109.13239
  98.00597, 111.15593
  98.02601, 115.76275
  98.04605, 106.97551
  98.06609, 102.36799
  98.08612, 104.97949
  98.10616, 107.16161
  98.12620, 107.58757
  98.14623, 106.98943
  98.16627, 110.32719
  98.18631, 113.46882
  98.20635, 114.75381
  98.22639, 106.84105
  98.24642, 104.76783
  98.26646, 113.21222
  98.28650, 116.13372
  98.30654, 116.21654
  98.32657, 108.85060
  98.34661, 108.61282
  98.36665, 112.63720
  98.38669, 119.11671
  98.40672, 114.65086
  98.42676, 117.12119
  98.44680, 115.72605
  98.46684, 119.00982
  98.48688, 128.38777
  98.50691, 119.66838
  98.52695, 127.37278
  98.54699, 122.12594
  98.56702, 120.77175
  98.58706, 123.84126
  98.60710, 130.32986
  98.62714, 132.18086
  98.64718, 132.47182
  98.66721, 134.26172
  98.68725, 137.83619
  98.70729, 148.42245
  98.72733, 156.71106
  98.74737, 164.71845
  98.76741, 168.73674
  98.78744, 186.56423
  98.80748, 187.64594
  98.82752, 210.04631
  98.84756, 224.97527
  98.86759, 237.64105
  98.88763, 249.74670
  98.90767, 260.48914
  98.92771, 272.83637
  98.94775, 282.87105
  98.96779, 291.49972
  98.98782, 283.96302
  99.00786, 272.74567
  99.02790, 270.23121
  99.04794, 251.67809
  99.06798, 243.20126
  99.08801, 239.28452
  99.10805, 229.62226
  99.12809, 220.66852
  99.14813, 216.64046
  99.16817, 215.73793
  99.18821, 212.09908
  99.20824, 209.91863
  99.22828, 214.58098
  99.24832, 208.99639
  99.26836, 205.80699
  99.28840, 210.78433
  99.30844, 210.52386
  99.32847, 205.54251
  99.34851, 197.35935
  99.36855, 193.90196
  99.38859, 185.63032
  99.40863, 173.11022
  99.42867, 164.42800
  99.44871, 154.27806
  99.46874, 154.18226
  99.48878, 147.56747
  99.50882, 145.48054
  99.52886, 145.41338
  99.54890, 136.64500
  99.56894, 119.12112
  99.58897, 123.06018
  99.60901, 126.07230
  99.62905, 124.90045
  99.64909, 118.13758
  99.66913, 115.63374
  99.68917, 114.70507
  99.70921, 117.35504
  99.72925, 114.69075
  99.74928, 122.65653
  99.76932, 119.65476
  99.78936, 114.06755
  99.80940, 114.09557
  99.82944, 110.35466
  99.84948, 111.44415
  99.86952, 108.27755
  99.88955, 115.07959
  99.90959, 112.85667
  99.92963, 111.28180
  99.94967, 108.24498
  99.96971, 112.33136
  99.98975, 110.42317
 100.00979, 108.11310
 100.02983, 102.74202
 100.04987, 107.05739
 100.06991, 107.69034
 100.08995, 107.51064
 100.10998, 106.39641
 100.13002, 113.72342
 100.15006, 114.72852
 100.17010, 103.53968
 100.19014, 101.83422
 100.21018, 102.06411
 100.23022, 102.79550
 100.25026, 102.62710
 100.27030, 107.52224
 100.29034, 107.13693
 100.31038, 103.46447
 100.33041, 100.44095
 100.35045, 101.88552
 100.37049, 104.18794
 100.39053, 104.94310
 100.41057, 105.54037
 100.43061, 102.28209
 100.45065, 102.92062
 100.47069, 104.94596
 100.49073, 104.66346
 100.51077, 100.22156
 100.53081, 105.74886
 100.55085, 108.45735
 100.57089, 108.41734
 100.59093, 111.29679
 100.61096, 100.96622
 100.63100, 100.03020
 100.65104, 103.06538
 100.67108,  98.15529
 100.69112, 101.99285
 100.71116, 103.64068
 100.73120,  96.48692
 100.75124, 102.76438
 100.77128, 103.82108
 100.79132, 101.18706
 100.81136, 101.13491
 100.83140,  99.45546
 100.85144, 103.45049
 100.87148, 104.85421
 100.89152, 107.16659
 100.91156, 104.21345
 100.93160,  99.11753
 100.95164,  94.16429
 100.97168, 100.37718
 100.99172,  98.58002
 101.01176, 104.17033
 101.03180, 106.86004
 101.05184, 108.86869
 101.07188, 104.81198
 101.09191, 101.30227
 101.11196, 110.41822
 101.13200, 101.98992
 101.15204, 101.38890
 101.17207, 103.37568
 101.19212, 102.91596
 101.21216, 105.45212
 101.23220, 103.63284
 101.25224, 107.15579
 101.27228,  99.86598
 101.29232, 100.04885
 101.31236, 101.84922
 101.33239, 102.15007
 101.35243, 105.28305
 101.37248, 107.63418
 101.39251, 103.56516
 101.41256,  95.86089
 101.43260,  98.28121
 101.45263, 101.29695
 101.47268, 109.41050
 101.49272, 105.13800
 101.51276,  98.93758
 101.53280, 101.23861
 101.55284, 100.50046
 101.57288, 105.03839
 101.59292, 102.39094
 101.61296, 101.07825
 101.63300, 102.37290
 101.65304, 104.44040
 101.67308, 101.60767
 101.69312, 101.41105
 101.71316, 100.94792
 101.73320,  97.22091
 101.75324, 107.00443
 101.77328, 102.18492
 101.79332,  98.53715
 101.81336, 102.51106
 101.83340, 105.63391
 101.85344, 109.73992
 101.87348,  96.65003
 101.89352, 101.36277
 101.91356, 108.08354
 101.93360, 101.50877
 101.95364, 101.38956
 101.97369, 100.10367
 101.99373,  99.01398
 102.01377, 103.56703
 102.03381, 107.41179
 102.05385,  99.79010
 102.07389,  99.43538
 102.09393, 102.36718
 102.11397,  99.83048
 102.13401, 106.63302
 102.15405, 104.75433
 102.17409, 101.62047
 102.19413,  98.92733
 102.21417, 101.16184
 102.23421,  99.70969
 102.25426,  99.95130
 102.27430, 102.61048
 102.29434, 107.38675
 102.31438,  95.63953
 102.33442,  98.18053
 102.35446, 102.40153
 102.37450, 100.38800
 102.39454, 100.92281
 102.41458, 103.11774
 102.43462,  98.84451
 102.45467,  94.80955
 102.47471, 102.45765
 102.49475,  97.70619
 102.51479, 102.15119
 102.53483, 109.55698
 102.55487, 103.69733
 102.57491, 101.54886
 102.59495,  99.85897
 102.61499,  98.18730
 102.63503, 107.43203
 102.65508,  98.70021
 102.67512,  99.42830
 102.69516,  98.28711
 102.71520, 101.50687
 102.73524,  94.83568
 102.75528,  97.90723
 102.77532, 103.48663
 102.79537, 106.32644
 102.81541, 103.93190
 102.83545, 101.27966
 102.85549,  99.55326
 102.87553, 105.85514
 102.89557, 100.40805
 102.91561,  96.09310
 102.93566, 102.25869
 102.95570, 103.92682
 102.97574,  99.84842
 102.99578,  98.11162
 103.01582, 100.28326
 103.03586, 101.40119
 103.05590, 102.92168
 103.07595,  99.69030
 103.09599,  94.76538
 103.11603,  91.44801
 103.13607,  97.96885
 103.15611, 102.26418
 103.17615,  98.60208
 103.19620,  97.57511
 103.21624, 104.83726
 103.23628, 101.37553
 103.25632,  98.49766
 103.27636, 102.02516
 103.29640, 107.16475
 103.31645, 101.04714
 103.33649,  94.63000
 103.35653, 101.44875
 103.37657, 101.09753
 103.39661, 101.83070
 103.41665, 102.06149
 103.43670, 106.79133
 103.45674, 103.95648
 103.47678,  99.97169
 103.49682,  96.88723
 103.51686, 101.86750
 103.53691,  98.60224
 103.55695,  94.53231
 103.57699, 108.01244
 103.59703, 108.58588
 103.61708,  98.43933
 103.63712,  97.44477
 103.65716, 100.37866
 103.67720,  97.64058
 103.69724, 102.67796
 103.71728,  96.03192
 103.73733,  96.13698
 103.75737, 102.13207
 103.77741,  98.67715
 103.79745,  95.46443
 103.81750,  94.76585
 103.83754,  95.95932
 103.85758, 103.35313
 103.87762, 101.38228
 103.89767, 100.53070
 103.91771,  95.84659
 103.93775,  97.08645
 103.95779,  97.06231
 103.97783, 102.97320
 103.99788,  96.71216
 104.01792, 100.37891
 104.03796, 100.35273
 104.05800,  99.10810
 104.07805, 108.58433
 104.09809,  99.43026
 104.11813, 101.87627
 104.13817, 105.46638
 104.15822, 100.56990
 104.17826, 102.73151
 104.19830, 102.51642
 104.21835, 101.56741
 104.23839,  98.80245
 104.25843,  99.96538
 104.27847, 106.20469
 104.29852, 101.05835
 104.31856, 103.32248
 104.33860, 101.78656
 104.35864,  96.33238
 104.37869, 104.18683
 104.39873, 109.45168
 104.41877,  99.58041
 104.43882,  92.88777
 104.45886,  96.00872
 104.47890,  99.61495
 104.49895, 102.71760
 104.51899, 106.78380
 104.53903, 104.70454
 104.55907, 107.15801
 104.57912,  96.23885
 104.59916,  95.04269
 104.61920,  99.78140
 104.63925, 101.54748
 104.65929, 104.10396
 104.67933, 103.83525
 104.69938, 103.53264
 104.71942, 100.55611
 104.73946, 101.50174
 104.75950,  96.68914
 104.77955,  97.48162
 104.79959, 102.11567
 104.81963, 103.07052
 104.83968,  95.06790
 104.85972,  98.08816
 104.87976,  95.88859
 104.89981, 100.54022
 104.91985,  98.52366
 104.93989, 103.01485
 104.95994, 101.08661
 104.97998,  98.89775
 105.00002, 101.02054
 105.02007,  99.29176
 105.04011,  96.53356
 105.06015,  98.06530
 105.08020, 101.18419
 105.10024, 100.49676
 105.12029, 100.87897
 105.14033, 100.29531
 105.16037, 103.24591
 105.18041, 102.29152
 105.20046,  96.38352
 105.22050, 101.25483
 105.24055, 101.28299
 105.26059,  99.53050
 105.28063, 103.19970
 105.30068, 101.25453
 105.32072, 100.54545
 105.34076, 102.64024
 105.36081, 104.56687
 105.38085,  95.93920
 105.40090,  99.87317
 105.42094, 100.28447
 105.44098, 101.22075
 105.46103, 101.40579
 105.48107,  94.79299
 105.50111,  97.18082
 105.52116,  98.81906
 105.54120,  99.81817
 105.56125, 105.30004
 105.58129, 102.45924
 105.60134,  98.98851
 105.62138,  97.87673
 105.64142, 101.95935
 105.66147,  95.80019
 105.68151,  98.88479
 105.70156, 102.06628
 105.72160,  99.45179
 105.74164, 103.36721
 105.76169, 102.62059
 105.78173, 103.39665
 105.80178,  94.75951
 105.82182, 104.13946
 105.84187, 105.06595
 105.86191, 100.78443
 105.88195,  99.31766
 105.90200, 107.01696
 105.92204, 100.29117
 105.94209,  98.64909
 105.96213, 101.47492
 105.98218, 100.34571
 106.00222, 102.25371
 106.02226,  99.42480
 106.04231, 100.40035
 106.06235,  96.54858
 106.08240, 100.41965
 106.10244, 101.10053
 106.12249, 106.75835
 106.14253,  98.40230
 106.16257, 103.07476
 106.18262,  99.26855
 106.20267,  95.31094
 106.22271, 101.95016
 106.24275, 101.79662
 106.26280, 101.75889
 106.28284,  99.37656
 106.30289, 102.12014
 106.32293,  96.65778
 106.34298, 102.07018
 106.36302, 100.21753
 106.38307,  99.83804
 106.40311, 106.57171
 106.42316, 103.15193
 106.44320, 100.60817
 106.46325,  95.41670
 106.48329,  99.51165
 106.50334,  95.19682
 106.52338, 102.02286
 106.54343, 104.99309
 106.56347, 104.02893
 106.58352, 101.72794
 106.60356,  96.02631
 106.62361, 100.36222
 106.64365, 100.86687
 106.66370,  99.90407
 106.68374, 103.33397
 106.70379, 100.02111
 106.72383, 101.76394
 106.74388, 105.86730
 106.76392, 102.22546
 106.78397, 102.19191
 106.80401, 101.17599
 106.82406,  98.03376
 106.84410,  96.91759
 106.86415, 102.10382
 106.88420, 101.92297
 106.90424,  96.94966
 106.92429, 103.89398
 106.94433,  94.52214
 106.96438,  98.17591
 106.98442,  95.51825
 107.00447,  97.66637
 107.02451,  96.05651
 107.04456,  96.81500
 107.06460, 104.15237
 107.08465,  98.70016
 107.10469,  98.12798
 107.12474, 103.41547
 107.14478, 104.81236
 107.16483, 105.94881
 107.18488,  95.53194
 107.20492,  94.60549
 107.22497,  99.39691
 107.24501, 101.58621
 107.26506, 100.30774
 107.28511,  99.17530
 107.30515, 105.64578
 107.32520,  98.15922
 107.34524,  98.34863
 107.36529,  94.24262
 107.38533,  95.90532
 107.40538,  99.21332
 107.42543,  93.47462
 107.44547,  95.08693
 107.46552,  98.51255
 107.48556,  99.46761
 107.50561, 106.12092
 107.52566, 103.34647
 107.54570,  97.54675
 107.56575, 104.29219
 107.58579,  96.07229
 107.60584, 103.06402
 107.62589, 102.13152
 107.64593, 102.08882
 107.66598,  99.25668
 107.68603, 101.81242
 107.70607,  97.80721
 107.72612,  93.81009
 107.74616,  98.28805
 107.76621, 101.89268
 107.78626,  92.48137
 107.80630,  96.17677
 107.82635,  96.83746
 107.84640, 100.55571
 107.86644, 100.08127
 107.88649,  98.79638
 107.90654,  97.43548
 107.92658,  98.73008
 107.94663, 103.30512
 107.96667, 102.59024
 107.98672, 105.17016
 108.00677, 103.51351
 108.02681, 100.61908
 108.04686,  95.30153
 108.06691,  92.52087
 108.08695, 102.26369
 108.10700,  93.23645
 108.12705, 106.38815
 108.14709,  99.73403
 108.16714,  97.62040
 108.18719,  99.92347
 108.20723,  95.39956
 108.22728,  97.78004
 108.24733, 105.00148
 108.26737, 100.27012
 108.28742, 100.27751
 108.30747, 102.23019
 108.32752,  99.72191
 108.34756,  95.00270
 108.36761,  99.22766
 108.38766,  98.38175
 108.40770,  96.16683
 108.42775, 105.31278
 108.44780,  97.71947
 108.46785, 103.77478
 108.48789, 100.46824
 108.50794, 100.70825
 108.52799,  99.67713
 108.54803, 100.66235
 108.56808,  94.47559
 108.58813,  96.03046
 108.60817,  90.87638
 108.62822, 100.16751
 108.64827, 101.96651
 108.66832,  97.11568
 108.68836,  97.68827
 108.70841,  99.91425
 108.72846, 101.62653
 108.74851,  98.12056
 108.76855,  96.13105
 108.78860,  99.91119
 108.80865, 104.21443
 108.82869,  94.19237
 108.84874, 100.45999
 108.86879,  99.28800
 108.88884, 102.23278
 108.90889, 101.70904
 108.92893,  96.20774
 108.94898,  93.78225
 108.96903, 100.49352
 108.98908,  99.88830
 109.00912, 101.23814
 109.02917, 103.65163
 109.04922, 102.82282
 109.06927,  95.01971
 109.08932,  98.96276
 109.10936,  97.67739
 109.12941, 101.09371
 109.14946,  95.90535
 109.16951,  98.13584
 109.18955,  93.85655
 109.20960,  94.91737
 109.22965,  98.69599
 109.24970,  95.76775
 109.26975,  96.83407
 109.28980, 105.79709
 109.30984, 100.08143
 109.32989,  99.37987
 109.34994,  98.04107
 109.36999,  96.71778
 109.39004,  98.93848
 109.41008, 100.53939
 109.43013, 102.35866
 109.45018,  98.74368
 109.47023,  97.68758
 109.49028, 102.64640
 109.51033, 102.10975
 109.53037,  99.87970
 109.55042, 101.55782
 109.57047, 100.93665
 109.59052,  99.98475
 109.61057,  99.93826
 109.63062, 104.23582
 109.65066, 109.12470
 109.67071, 100.04965
 109.69076,  97.25121
 109.71081,  92.13665
 109.73086,  88.68781
 109.75091,  92.40286
 109.77095,  92.33815
 109.79100,  98.91872
 109.81105, 102.17303
 109.83110,  97.18913
 109.85115,  97.15391
 109.87120,  99.47173
 109.89125, 100.73876
 109.91129,  98.99880
 109.93134,  99.83721
 109.95139,  95.08080
 109.97144,  94.12863
 109.99149, 101.06390
 110.01154,  98.18192
 110.03159, 104.68964
 110.05164, 103.04647
 110.07169, 101.67639
 110.09174, 104.74392
 110.11178, 102.08609
 110.13183, 109.40252
 110.15188, 104.90375
 110.17193, 100.08593
 110.19198,  92.68596
 110.21203,  99.97340
 110.23208, 104.34189
 110.25213,  98.98637
 110.27218,  99.63003
 110.29223, 112.06213
 110.31227, 105.98992
 110.33233,  97.23658
 110.35237,  98.99241
 110.37242,  95.81923
 110.39247,  99.83321
 110.41252,  99.31623
 110.43257,  93.72286
 110.45262,  99.37699
 110.47267,  96.89855
 110.49272, 101.68104
 110.51277,  98.19388
 110.53282, 101.21365
 110.55287, 104.04599
 110.57292,  99.56720
 110.59297,  97.88252
 110.61302, 103.98384
 110.63307, 102.83385
 110.65312,  97.29234
 110.67317, 105.02208
 110.69322,  98.16917
 110.71327, 105.21077
 110.73332,  95.01760
 110.75337, 100.87971
 110.77341,  99.44235
 110.79347,  95.27885
 110.81352, 102.19850
 110.83356,  97.62682
 110.85361,  98.84801
 110.87367,  93.58976
 110.89372,  97.94698
 110.91377,  99.47588
 110.93382,  97.39650
 110.95387,  96.72400
 110.97392, 101.86700
 110.99397, 103.19609
 111.01401, 101.95556
 111.03407,  99.66745
 111.05412,  94.97590
 111.07417,  99.68326
 111.09422, 100.59886
 111.11427, 104.80925
 111.13432, 103.48287
 111.15437, 100.55556
 111.17442,  96.29235
 111.19447,  95.71363
 111.21452,  95.14014
 111.23457,  90.98954
 111.25462,  93.40891
 111.27467,  98.23668
 111.29472,  97.07303
 111.31477, 100.44620
 111.33482, 103.99178
 111.35487,  92.75066
 111.37492,  97.08559
 111.39497,  97.67387
 111.41502,  96.32722
 111.43507, 102.98315
 111.45513, 101.60938
 111.47517,  99.61986
 111.49523,  99.27017
 111.51528,  95.98766
 111.53533,  98.80382
 111.55538, 102.19397
 111.57543, 103.78344
 111.59548,  96.33494
 111.61553, 101.60510
 111.63558,  96.09279
 111.65563,  96.11532
 111.67569, 103.28609
 111.69574,  97.92499
 111.71579,  96.57171
 111.73584,  96.77523
 111.75589,  96.33257
 111.77594,  94.41740
 111.79599,  96.92030
 111.81604, 101.56619
 111.83609, 102.10551
 111.85615, 100.10914
 111.87619, 102.20314
 111.89625, 100.29955
 111.91630,  94.72691
 111.93635,  97.03255
 111.95640,  99.98462
 111.97645, 100.80242
 111.99650,  98.05424
 112.01655,  95.84734
 112.03661, 100.92514
 112.05666,  99.59068
 112.07671,  96.63305
 112.09676,  97.08359
 112.11681, 101.40377
 112.13686,  94.52016
 112.15692,  98.91786
 112.17697, 101.46710
 112.19702, 101.36039
 112.21707, 102.10245
 112.23712,  96.46421
 112.25717,  94.14998
 112.27723, 101.99949
 112.29728,  98.98342
 112.31733,  95.22068
 112.33738,  99.18151
 112.35743, 101.28747
 112.37749,  99.52367
 112.39754, 107.11585
 112.41759, 104.98022
 112.43764,  97.31049
 112.45769,  98.87477
 112.47775,  96.03467
 112.49780,  95.05168
 112.51785, 102.58000
 112.53790,  98.76992
 112.55795,  98.51384
 112.57801,  99.54366
 112.59806,  98.72643
 112.61811,  98.21752
 112.63816,  99.68404
 112.65822,  99.35505
 112.67827,  98.51093
 112.69832,  98.34515
 112.71837,  98.23363
 112.73843,  94.79905
 112.75848,  94.85422
 112.77853,  98.92576
 112.79858,  93.56175
 112.81864, 100.31702
 112.83869,  94.34920
 112.85874,  96.28890
 112.87879,  99.81070
 112.89885, 101.03790
 112.91890,  99.55194
 112.93895, 100.67996
 112.95900, 104.71615
 112.97906, 104.23006
 112.99911,  96.28798
 113.01916,  99.04652
 113.03922,  97.88480
 113.05927,  99.34609
 113.07932, 101.69762
 113.09937,  97.80802
 113.11943,  92.81457
 113.13948,  91.35762
 113.15953,  98.49485
 113.17958, 100.68222
 113.19964,  97.97114
 113.21969,  94.55305
 113.23974, 106.14761
 113.25980, 107.19223
 113.27985, 102.27274
 113.29991,  97.25914
 113.31996,  99.81826
 113.34001, 104.68744
 113.36006, 104.02210
 113.38012,  95.73641
 113.40017,  96.44440
 113.42022, 100.02220
 113.44028,  95.12086
 113.46033,  97.66481
 113.48038,  99.56313
 113.50044,  99.06138
 113.52049, 103.03547
 113.54055, 102.61569
 113.56060,  99.58944
 113.58065, 102.10511
 113.60071, 101.29674
 113.62076, 105.84994
 113.64081,  95.49593
 113.66087, 107.96434
 113.68092, 102.41995
 113.70098,  98.10827
 113.72103,  96.72552
 113.74108,  98.14523
 113.76114,  99.27983
 113.78119, 103.00145
 113.80124, 101.40432
 113.82130,  96.87039
 113.84135,  99.01999
 113.86141,  96.12806
 113.88146,  96.78096
 113.90151,  98.65087
 113.92157,  93.51492
 113.94162, 103.10845
 113.96168, 103.12404
 113.98173,  98.68884
 114.00178,  93.74293
 114.02184,  98.45634
 114.04189, 100.32892
 114.06195, 100.44746
 114.08200, 104.90453
 114.10206, 104.52669
 114.12211,  96.87264
 114.14217, 100.03875
 114.16222,  96.57617
 114.18227,  98.05710
 114.20233,  98.41202
 114.22238, 100.21078
 114.24244, 102.53474
 114.26249, 101.82216
 114.28255, 100.62718
 114.30260, 105.33831
 114.32266, 102.05611
 114.34271,  99.46220
 114.36277,  98.09819
 114.38282, 100.19303
 114.40287,  98.85795
 114.42293, 104.59923
 114.44298,  93.31818
 114.46304,  98.04278
 114.48310, 106.13822
 114.50315, 103.50845
 114.52320, 100.34882
 114.54326, 104.72467
 114.56332,  98.73963
 114.58337,  95.78331
 114.60342, 100.69740
 114.62348, 101.83992
 114.64353, 101.14145
 114.66359, 101.55243
 114.68365, 105.76539
 114.70370, 103.48306
 114.72375, 103.30708
 114.74381, 102.43957
 114.76387,  98.50048
 114.78392, 101.57452
 114.80398, 100.81893
 114.82403,  96.68253
 114.84409,  95.40055
 114.86414,  98.32314
 114.88420,  99.90795
 114.90426, 102.20669
 114.92431, 105.88592
 114.94437,  99.96612
 114.96442,  96.32437
 114.98448, 105.23067
 115.00453, 101.12516
 115.02459, 102.70762
 115.04465, 100.24882
 115.06470, 106.18172
 115.08476,  98.32902
 115.10481, 102.84202
 115.12487, 103.37990
 115.14492, 100.45316
 115.16498, 106.44476
 115.18504, 110.38608
 115.20509, 105.25684
 115.22515, 102.91455
 115.24520, 104.35286
 115.26526, 109.29489
 115.28531, 110.80120
 115.30537, 111.56195
 115.32543, 110.46731
 115.34548,  97.88594
 115.36554, 107.87253
 115.38560, 106.59700
 115.40565, 114.36427
 115.42571, 101.98504
 115.44577, 106.30115
 115.46582, 117.36574
 115.48588, 116.42631
 115.50594, 110.61258
 115.52599, 113.44017
 115.54605, 120.08283
 115.56611, 117.78217
 115.58616, 115.98273
 115.60622, 111.81820
 115.62627, 114.97139
 115.64633, 116.93358
 115.66639, 125.89021
 115.68644, 121.17891
 115.70650, 123.28290
 115.72656, 118.19556
 115.74661, 127.56808
 115.76667, 122.49074
 115.78673, 121.23942
 115.80679, 134.86104
 115.82684, 130.25811
 115.84690, 131.27455
 115.86696, 127.41001
 115.88701, 128.83508
 115.90707, 139.80237
 115.92713, 138.74789
 115.94719, 142.58166
 115.96724, 147.35239
 115.98730, 148.95314
 116.00736, 155.34273
 116.02741, 156.42997
 116.04747, 157.09080
 116.06753, 165.34224
 116.08759, 176.89588
 116.10764, 181.70268
 116.12770, 176.45073
 116.14776, 186.71543
 116.16782, 193.03483
 116.18787, 206.43621
 116.20793, 210.08487
 116.22799, 224.01000
 116.24805, 240.66663
 116.26810, 247.57805
 116.28816, 258.85580
 116.30822, 271.63662
 116.32828, 284.12843
 116.34834, 292.70496
 116.36839, 303.86682
 116.38845, 314.16351
 116.40851, 330.23222
 116.42857, 311.11789
 116.44863, 323.36652
 116.46868, 318.02654
 116.48874, 296.42942
 116.50880, 295.01191
 116.52886, 278.88287
 116.54892, 265.94148
 116.56897, 256.97685
 116.58903, 256.77766
 116.60909, 253.80063
 116.62915, 244.61099
 116.64921, 241.02434
 116.66927, 241.64975
 116.68932, 247.38571
 116.70938, 235.65239
 116.72944, 233.05527
 116.74950, 241.51578
 116.76956, 228.06205
 116.78962, 229.00284
 116.80968, 237.37548
 116.82973, 227.51781
 116.84979, 232.74685
 116.86985, 236.98006
 116.88991, 236.58288
 116.90997, 229.31596
 116.93003, 234.76601
 116.95009, 216.91137
 116.97015, 202.07642
 116.99020, 208.83280
 117.01026, 192.60760
 117.03032, 192.94172
 117.05038, 175.57724
 117.07044, 179.20412
 117.09050, 168.62152
 117.11056, 165.82498
 117.13062, 162.18523
 117.15067, 156.24801
 117.17074, 151.28575
 117.19079, 148.53314
 117.21085, 145.01447
 117.23091, 138.86185
 117.25097, 139.38010
 117.27103, 137.28283
 117.29109, 140.35474
 117.31115, 140.30509
 117.33121, 135.11127
 117.35127, 121.97176
 117.37133, 122.75073
 117.39139, 128.88224
 117.41145, 125.18697
 117.43151, 118.74936
 117.45157, 117.20918
 117.47163, 119.28669
 117.49169, 119.61995
 117.51175, 118.64090
 117.53180, 118.38713
 117.55186, 113.82337
 117.57192, 125.31826
 117.59198, 109.79836
 117.61205, 109.15047
 117.63211, 111.22493
 117.65216, 105.42043
 117.67222, 109.58544
 117.69229, 105.40254
 117.71235, 104.26071
 117.73241, 105.67376
 117.75247, 104.37781
 117.77252, 111.49952
 117.79259, 104.16270
 117.81265, 111.24213
 117.83271, 104.84070
 117.85277, 107.64050
 117.87283, 108.48150
 117.89289, 108.16380
 117.91295, 103.46202
 117.93301, 109.40147
 117.95307, 110.73526
 117.97313, 107.74550
 117.99319, 105.07139
 118.01325, 102.45569
 118.03331, 104.62042
 118.05337,  96.98494
 118.07343,  97.19164
 118.09349, 100.34129
 118.11355, 100.23268
 118.13362,  90.93422
 118.15368,  98.68635
 118.17374, 102.65126
 118.19380,  99.97741
 118.21386,  99.16876
 118.23392,  98.62335
 118.25398, 100.34265
 118.27404,  98.77904
 118.29410,  90.08702
 118.31417,  96.44356
 118.33423,  98.99076
 118.35429, 104.74732
 118.37435, 101.97438
 118.39441, 108.33771
 118.41447, 101.48484
 118.43453, 100.31230
 118.45459, 103.03768
 118.47465, 103.14311
 118.49472, 101.87626
 118.51478, 101.84948
 118.53484,  99.36478
 118.55490,  93.50514
 118.57496,  95.83155
 118.59502, 105.07735
 118.61509, 103.27103
 118.63515,  95.71678
 118.65521,  97.21431
 118.67527,  97.80075
 118.69533,  97.69789
 118.71540,  99.21556
 118.73546, 103.45603
 118.75552, 100.64625
 118.77558, 101.80111
 118.79564,  97.14404
 118.81571, 101.38025
 118.83577,  99.76293
 118.85583, 103.74682
 118.87589,  99.60687
 118.89595,  96.54535
 118.91601,  98.02362
 118.93608,  95.70425
 118.95614,  99.84785
 118.97620, 102.65856
 118.99627, 101.75038
 119.01633, 101.24365
 119.03639,  97.72097
 119.05645,  93.13371
 119.07651,  94.81395
 119.09658,  97.15288
 119.11664,  94.94043
 119.13670,  93.86952
 119.15677, 103.05734
 119.17683,  97.34159
 119.19689,  96.09597
 119.21695,  93.99137
 119.23702,  92.89925
 119.25708,  95.80765
