# 2Theta,Counts
  36.25016, 255.46982
  36.27018, 247.25709
  36.29020, 238.27812
  36.31022, 233.29733
  36.33024, 238.55213
  36.35025, 247.92551
  36.37027, 249.55689
  36.39029, 241.45228
  36.41031, 252.24762
  36.43032, 258.22990
  36.45034, 255.26631
  36.47036, 249.91855
  36.49038, 251.07658
  36.51040, 256.83365
  36.53041, 235.03185
  36.55043, 247.08429
  36.57045, 238.42986
  36.59047, 232.33080
  36.61048, 242.49278
  36.63050, 237.91014
  36.65052, 242.21684
  36.67054, 245.66317
  36.69056, 237.69708
  36.71057, 243.07706
  36.73059, 229.42473
  36.75061, 237.51084
  36.77063, 239.56025
  36.79065, 239.48915
  36.81066, 237.36761
  36.83068, 248.96121
  36.85070, 237.54444
  36.87072, 244.75221
  36.89074, 228.81509
  36.91075, 237.24587
  36.93077, 241.10179
  36.95079, 239.26578
  36.97081, 230.15621
  36.99083, 240.23209
  37.01084, 225.13708
  37.03086, 230.90841
  37.05088, 250.66081
  37.07090, 243.02520
  37.09091, 242.26590
  37.11093, 253.45305
  37.13095, 254.78026
  37.15097, 237.91391
  37.17099, 226.19929
  37.19100, 228.90955
  37.21102, 226.08161
  37.23104, 230.93378
  37.25106, 226.43368
  37.27108, 235.65275
  37.29109, 233.32718
  37.31111, 242.46945
  37.33113, 236.12771
  37.35115, 235.04706
  37.37117, 235.60758
  37.39118, 233.52146
  37.41120, 221.93648
  37.43122, 237.91996
  37.45124, 240.75158
  37.47126, 234.76311
  37.49127, 229.56459
  37.51129, 232.75984
  37.53131, 234.66743
  37.55133, 237.27686
  37.57135, 239.59283
  37.59136, 224.27880
  37.61138, 224.38353
  37.63140, 222.69548
  37.65142, 221.84182
  37.67143, 232.29465
  37.69145, 235.23449
  37.71147, 248.05945
  37.73149, 234.43775
  37.75151, 239.97894
  37.77152, 240.62567
  37.79154, 233.52876
  37.81156, 234.65936
  37.83158, 229.26212
  37.85160, 232.69230
  37.87162, 221.42044
  37.89163, 235.70849
  37.91165, 240.04170
  37.93167, 225.95204
  37.95169, 225.43675
  37.97170, 224.03396
  37.99172, 222.04890
  38.01174, 221.60674
  38.03176, 214.31482
  38.05178, 235.01031
  38.07179, 226.01567
  38.09181, 213.93266
  38.11183, 226.99308
  38.13185, 236.80420
  38.15187, 229.56242
  38.17188, 233.10474
  38.19190, 237.52441
  38.21192, 239.54058
  38.23194, 223.08076
  38.25196, 223.60657
  38.27197, 227.76458
  38.29199, 241.74946
  38.31201, 227.60912
  38.33203, 234.44202
  38.35205, 228.56534
  38.37207, 235.53605
  38.39208, 233.83060
  38.41210, 218.03265
  38.43212, 218.87786
  38.45214, 235.15249
  38.47216, 230.93267
  38.49217, 236.20830
  38.51219, 231.01173
  38.53221, 223.46033
  38.55223, 224.83170
  38.57225, 215.86590
  38.59226, 230.72746
  38.61228, 232.60379
  38.63230, 226.93823
  38.65232, 221.40168
  38.67234, 228.85929
  38.69235, 230.65616
  38.71237, 226.77799
  38.73239, 219.36370
  38.75241, 224.53169
  38.77243, 225.81210
  38.79245, 236.17323
  38.81246, 237.03952
  38.83248, 228.57202
  38.85250, 216.89494
  38.87252, 226.90218
  38.89254, 228.16537
  38.91255, 225.88795
  38.93257, 222.68396
  38.95259, 213.21833
  38.97261, 213.27795
  38.99263, 223.89019
  39.01264, 220.88830
  39.03266, 220.80687
  39.05268, 211.70809
  39.07270, 216.11591
  39.09272, 219.46799
  39.11273, 218.89184
  39.13275, 216.12504
  39.15277, 224.18298
  39.17279, 222.65252
  39.19281, 217.13694
  39.21283, 228.27030
  39.23284, 211.66148
  39.25286, 215.28152
  39.27288, 214.65947
  39.29290, 226.29353
  39.31292, 221.95491
  39.33293, 223.92095
  39.35295, 212.12908
  39.37297, 209.04273
  39.39299, 221.69907
  39.41301, 230.82872
  39.43302, 211.54331
  39.45304, 212.73497
  39.47306, 205.63935
  39.49308, 216.19942
  39.51310, 225.73493
  39.53312, 226.91872
  39.55313, 220.26408
  39.57315, 227.25228
  39.59317, 221.41460
  39.61319, 204.12289
  39.63321, 217.85149
  39.65322, 225.54784
  39.67324, 219.99349
  39.69326, 224.07442
  39.71328, 225.83214
  39.73330, 213.83945
  39.75332, 209.85363
  39.77333, 221.25717
  39.79335, 212.60575
  39.81337, 217.65089
  39.83339, 226.42322
  39.85341, 219.94501
  39.87342, 221.96490
  39.89344, 220.22018
  39.91346, 210.05220
  39.93348, 227.55185
  39.95350, 219.49655
  39.97352, 215.30575
  39.99353, 220.94748
  40.01355, 207.81231
  40.03357, 216.50797
  40.05359, 226.25087
  40.07361, 218.37726
  40.09363, 220.33145
  40.11364, 216.09049
  40.13366, 209.50548
  40.15368, 208.59965
  40.17370, 219.19439
  40.19372, 210.43489
  40.21374, 212.53401
  40.23375, 214.98888
  40.25377, 211.45334
  40.27379, 217.42062
  40.29381, 221.56583
  40.31383, 211.62182
  40.33384, 226.01756
  40.35386, 221.39407
  40.37388, 213.92169
  40.39390, 220.02783
  40.41392, 203.47582
  40.43394, 213.71922
  40.45395, 213.96679
  40.47397, 215.43798
  40.49399, 212.16165
  40.51401, 215.44824
  40.53403, 214.71273
  40.55405, 219.20912
  40.57406, 210.89593
  40.59408, 211.57773
  40.61410, 199.63943
  40.63412, 202.32669
  40.65414, 201.99391
  40.67416, 205.76743
  40.69417, 205.94309
  40.71419, 199.10422
  40.73421, 209.56499
  40.75423, 211.14495
  40.77425, 213.78276
  40.79427, 211.66006
  40.81428, 216.54463
  40.83430, 212.14128
  40.85432, 209.21013
  40.87434, 202.62186
  40.89436, 210.88240
  40.91438, 213.78352
  40.93439, 205.34371
  40.95441, 208.50197
  40.97443, 207.34328
  40.99445, 213.34710
  41.01447, 206.66468
  41.03448, 215.96900
  41.05450, 212.09768
  41.07452, 206.09015
  41.09454, 196.30468
  41.11456, 219.89390
  41.13458, 211.04409
  41.15460, 208.39979
  41.17461, 195.07020
  41.19463, 214.63051
  41.21465, 199.07756
  41.23467, 205.32172
  41.25469, 211.43243
  41.27471, 206.25300
  41.29472, 209.94592
  41.31474, 214.84488
  41.33476, 213.99288
  41.35478, 201.55850
  41.37480, 210.05500
  41.39482, 205.64463
  41.41483, 202.57673
  41.43485, 211.62781
  41.45487, 208.93925
  41.47489, 214.17924
  41.49491, 209.96141
  41.51493, 203.16642
  41.53494, 210.95384
  41.55496, 222.20745
  41.57498, 220.76150
  41.59500, 210.56731
  41.61502, 206.25097
  41.63504, 212.66684
  41.65505, 200.68747
  41.67507, 198.00663
  41.69509, 207.90943
  41.71511, 216.59894
  41.73513, 202.62645
  41.75515, 206.12384
  41.77517, 206.47111
  41.79518, 196.96589
  41.81520, 190.05988
  41.83522, 197.19799
  41.85524, 206.72698
  41.87526, 189.75042
  41.89528, 196.23560
  41.91529, 207.55299
  41.93531, 209.73299
  41.95533, 201.39555
  41.97535, 201.56028
  41.99537, 203.84458
  42.01539, 200.16752
  42.03541, 200.55624
  42.05542, 205.29919
  42.07544, 202.49431
  42.09546, 208.29528
  42.11548, 194.45212
  42.13550, 200.33662
  42.15552, 207.59487
  42.17554, 202.78152
  42.19555, 201.54854
  42.21557, 202.33647
  42.23559, 190.53414
  42.25561, 205.58996
  42.27563, 216.16237
  42.29565, 194.44869
  42.31567, 182.21526
  42.33568, 198.37801
  42.35570, 202.96912
  42.37572, 205.26552
  42.39574, 201.52454
  42.41576, 209.54017
  42.43578, 200.62899
  42.45579, 198.32480
  42.47581, 204.97495
  42.49583, 208.55326
  42.51585, 197.69203
  42.53587, 197.23853
  42.55589, 210.91640
  42.57591, 197.80690
  42.59592, 197.06273
  42.61594, 197.97358
  42.63596, 205.83568
  42.65598, 212.59356
  42.67600, 202.45369
  42.69602, 222.85569
  42.71604, 202.31783
  42.73605, 209.70110
  42.75607, 199.04014
  42.77609, 202.61442
  42.79611, 212.41245
  42.81613, 207.39444
  42.83615, 209.42338
  42.85617, 199.16378
  42.87618, 200.19098
  42.89620, 209.19822
  42.91622, 202.23105
  42.93624, 216.71150
  42.95626, 216.20644
  42.97628, 218.31641
  42.99630, 205.51091
  43.01631, 201.70574
  43.03633, 216.80968
  43.05635, 204.36073
  43.07637, 208.87380
  43.09639, 203.81423
  43.11641, 201.64393
  43.13643, 210.58052
  43.15644, 208.40470
  43.17646, 208.61292
  43.19648, 215.76837
  43.21650, 220.92961
  43.23652, 218.67421
  43.25654, 206.68821
  43.27656, 211.95973
  43.29657, 211.51806
  43.31659, 214.36751
  43.33661, 215.87941
  43.35663, 221.77138
  43.37665, 224.33600
  43.39667, 224.14851
  43.41669, 232.51023
  43.43671, 227.21342
  43.45672, 234.51537
  43.47674, 264.19337
  43.49676, 285.19883
  43.51678, 350.78604
  43.53680, 400.66507
  43.55682, 449.74574
  43.57684, 504.23893
  43.59686, 524.38388
  43.61687, 488.38623
  43.63689, 457.50297
  43.65691, 436.18136
  43.67693, 410.67321
  43.69695, 390.83616
  43.71697, 370.70493
  43.73698, 349.69177
  43.75700, 316.34153
  43.77702, 294.54086
  43.79704, 266.77955
  43.81706, 245.74824
  43.83708, 237.90940
  43.85710, 238.50752
  43.87712, 225.68396
  43.89713, 226.39940
  43.91715, 230.65223
  43.93717, 217.53330
  43.95719, 218.01547
  43.97721, 225.35078
  43.99723, 224.45721
  44.01725, 226.88799
  44.03727, 223.50018
  44.05728, 222.04550
  44.07730, 224.73491
  44.09732, 212.59894
  44.11734, 220.29977
  44.13736, 232.11283
  44.15738, 239.97940
  44.17740, 236.27158
  44.19742, 229.97616
  44.21743, 228.31840
  44.23745, 239.74154
  44.25747, 257.92817
  44.27749, 249.25006
  44.29751, 266.16860
  44.31753, 278.20505
  44.33755, 289.46180
  44.35757, 303.03355
  44.37759, 324.54632
  44.39760, 351.55060
  44.41762, 363.88512
  44.43764, 406.44144
  44.45766, 447.23887
  44.47768, 505.92167
  44.49770, 577.98367
  44.51772, 709.35499
  44.53774, 864.10087
  44.55775,1102.42840
  44.57777,1440.08310
  44.59779,1858.73890
  44.61781,2375.97430
  44.63783,2781.72500
  44.65785,3151.06420
  44.67787,3417.94310
  44.69789,3428.75340
  44.71790,3262.38690
  44.73792,2984.68220
  44.75794,2672.35070
  44.77796,2428.93090
  44.79798,2223.08470
  44.81800,1959.12690
  44.83802,1633.90040
  44.85804,1295.73570
  44.87805,1020.99980
  44.89807, 808.06983
  44.91809, 673.42826
  44.93811, 578.76405
  44.95813, 481.89321
  44.97815, 416.73248
  44.99817, 345.87537
  45.01819, 330.47892
  45.03821, 324.49585
  45.05822, 276.14461
  45.07824, 277.70652
  45.09826, 264.92510
  45.11828, 250.91783
  45.13830, 244.21801
  45.15832, 246.85739
  45.17834, 235.88759
  45.19836, 227.54843
  45.21838, 230.67143
  45.23840, 216.67871
  45.25841, 213.18612
  45.27843, 217.15933
  45.29845, 211.92794
  45.31847, 220.24337
  45.33849, 212.81532
  45.35851, 218.03980
  45.37853, 199.13253
  45.39855, 199.62058
  45.41856, 209.38619
  45.43858, 204.53930
  45.45860, 205.74591
  45.47862, 192.51986
  45.49864, 193.62929
  45.51866, 187.67964
  45.53868, 193.39036
  45.55870, 205.34335
  45.57872, 201.77444
  45.59873, 186.17042
  45.61875, 186.47861
  45.63877, 189.70273
  45.65879, 188.74174
  45.67881, 196.55348
  45.69883, 204.10301
  45.71885, 180.32101
  45.73887, 196.66254
  45.75889, 195.08020
  45.77891, 187.31868
  45.79892, 178.92842
  45.81894, 175.15798
  45.83896, 187.77485
  45.85898, 188.77884
  45.87900, 190.75921
  45.89902, 193.56336
  45.91904, 182.36770
  45.93906, 178.85615
  45.95908, 180.42064
  45.97909, 189.24882
  45.99911, 188.92744
  46.01913, 180.89025
  46.03915, 186.81319
  46.05917, 184.27248
  46.07919, 173.20378
  46.09921, 177.82348
  46.11923, 183.03656
  46.13925, 188.94554
  46.15927, 193.03526
  46.17929, 185.67611
  46.19930, 180.62858
  46.21932, 179.67845
  46.23934, 170.91122
  46.25936, 184.69185
  46.27938, 179.50706
  46.29940, 177.24430
  46.31942, 173.00619
  46.33944, 184.42801
  46.35946, 175.07970
  46.37948, 170.87521
  46.39949, 175.43038
  46.41951, 181.10840
  46.43953, 182.52016
  46.45955, 168.32016
  46.47957, 177.18152
  46.49959, 179.77450
  46.51961, 172.90681
  46.53963, 179.58829
  46.55965, 171.82143
  46.57967, 174.07736
  46.59969, 172.46763
  46.61970, 181.74868
  46.63972, 181.53298
  46.65974, 175.73219
  46.67976, 184.10818
  46.69978, 183.56768
  46.71980, 191.10309
  46.73982, 170.47127
  46.75984, 166.09751
  46.77986, 165.94972
  46.79988, 177.30256
  46.81990, 173.35922
  46.83991, 175.44795
  46.85993, 158.85575
  46.87995, 167.59418
  46.89997, 171.09884
  46.91999, 179.23708
  46.94001, 173.55592
  46.96003, 176.06652
  46.98005, 172.51888
  47.00007, 178.42297
  47.02009, 174.40637
  47.04011, 170.72007
  47.06012, 176.43083
  47.08014, 169.01989
  47.10016, 172.09790
  47.12018, 172.43375
  47.14020, 176.65670
  47.16022, 172.03248
  47.18024, 172.73457
  47.20026, 170.66237
  47.22028, 172.89241
  47.24030, 168.08193
  47.26032, 166.96672
  47.28034, 171.64076
  47.30035, 172.09650
  47.32037, 173.95865
  47.34039, 177.58502
  47.36041, 180.08893
  47.38043, 179.09979
  47.40045, 175.76149
  47.42047, 172.27934
  47.44049, 172.30864
  47.46051, 176.05472
  47.48053, 179.11264
  47.50055, 170.57495
  47.52057, 170.73273
  47.54059, 168.41305
  47.56060, 167.36973
  47.58062, 164.11264
  47.60064, 169.51933
  47.62066, 168.05405
  47.64068, 155.69898
  47.66070, 162.67273
  47.68072, 167.23100
  47.70074, 167.85297
  47.72076, 162.48543
  47.74078, 170.68767
  47.76080, 163.73537
  47.78082, 173.14613
  47.80084, 168.59438
  47.82085, 171.18817
  47.84087, 167.28605
  47.86089, 169.24032
  47.88091, 169.03962
  47.90093, 167.69223
  47.92095, 166.10411
  47.94097, 168.95990
  47.96099, 172.35184
  47.98101, 169.76764
  48.00103, 163.11195
  48.02105, 171.50464
  48.04107, 172.16148
  48.06109, 171.66833
  48.08111, 180.33839
  48.10113, 159.96156
  48.12114, 157.60835
  48.14116, 159.62610
  48.16118, 168.06491
  48.18120, 168.86584
  48.20122, 163.66982
  48.22124, 171.19679
  48.24126, 165.68022
  48.26128, 174.33268
  48.28130, 173.86217
  48.30132, 155.78185
  48.32134, 164.35834
  48.34136, 168.00875
  48.36138, 168.98930
  48.38139, 158.78706
  48.40141, 163.60465
  48.42143, 164.61431
  48.44145, 160.09474
  48.46147, 151.57513
  48.48149, 163.66458
  48.50151, 164.58869
  48.52153, 162.47235
  48.54155, 169.64278
  48.56157, 166.26704
  48.58159, 151.80754
  48.60161, 159.16586
  48.62163, 164.62297
  48.64165, 171.04205
  48.66167, 164.00405
  48.68169, 164.19705
  48.70171, 158.77783
  48.72173, 163.87327
  48.74174, 162.87275
  48.76176, 166.32609
  48.78178, 158.06863
  48.80180, 153.90067
  48.82182, 167.07978
  48.84184, 161.71422
  48.86186, 159.93402
  48.88188, 162.48059
  48.90190, 155.63677
  48.92192, 156.67210
  48.94194, 165.03128
  48.96196, 167.68672
  48.98198, 167.34265
  49.00200, 158.46315
  49.02202, 161.60177
  49.04204, 165.74343
  49.06205, 157.27141
  49.08207, 160.37140
  49.10209, 160.34581
  49.12211, 168.11859
  49.14213, 163.65428
  49.16215, 162.90283
  49.18217, 160.33574
  49.20219, 159.82798
  49.22221, 158.17456
  49.24223, 162.63137
  49.26225, 150.83235
  49.28227, 169.45803
  49.30229, 163.62856
  49.32231, 155.27981
  49.34233, 167.49691
  49.36235, 159.02611
  49.38237, 156.86979
  49.40239, 164.86685
  49.42241, 156.62092
  49.44242, 156.28897
  49.46244, 161.52989
  49.48246, 165.36304
  49.50248, 160.27090
  49.52250, 155.83379
  49.54252, 158.45612
  49.56254, 155.60993
  49.58256, 158.25693
  49.60258, 159.06248
  49.62260, 154.06254
  49.64262, 160.88554
  49.66264, 154.06302
  49.68266, 153.55910
  49.70268, 152.24096
  49.72270, 159.71653
  49.74272, 153.25140
  49.76274, 156.77001
  49.78276, 157.12125
  49.80278, 156.80877
  49.82280, 167.88413
  49.84282, 158.48094
  49.86283, 160.50731
  49.88286, 157.63066
  49.90287, 159.28496
  49.92289, 157.30789
  49.94291, 155.55840
  49.96293, 154.06046
  49.98295, 155.70630
  50.00297, 161.91380
  50.02299, 153.73908
  50.04301, 163.76036
  50.06303, 174.10597
  50.08305, 160.04153
  50.10307, 157.79873
  50.12309, 156.26666
  50.14311, 157.56183
  50.16313, 162.96920
  50.18315, 163.80089
  50.20317, 168.14902
  50.22319, 161.46684
  50.24321, 154.10310
  50.26323, 152.90951
  50.28325, 152.98882
  50.30327, 157.81500
  50.32329, 165.55512
  50.34331, 165.44015
  50.36333, 151.82334
  50.38334, 153.25580
  50.40336, 162.24780
  50.42338, 171.55145
  50.44340, 167.41217
  50.46342, 160.10904
  50.48344, 167.88774
  50.50346, 160.60856
  50.52348, 160.44351
  50.54350, 168.05079
  50.56352, 171.02785
  50.58354, 167.74132
  50.60356, 168.71192
  50.62358, 177.24864
  50.64360, 184.79728
  50.66362, 179.57229
  50.68364, 195.96447
  50.70366, 210.93386
  50.72368, 229.72266
  50.74370, 233.17422
  50.76372, 242.85421
  50.78374, 244.55804
  50.80376, 249.60487
  50.82378, 245.31412
  50.84380, 231.14745
  50.86382, 228.91132
  50.88384, 218.11161
  50.90386, 208.34905
  50.92388, 219.25546
  50.94390, 208.47559
  50.96392, 194.46368
  50.98394, 185.51188
  51.00396, 171.39475
  51.02398, 172.29528
  51.04400, 160.85897
  51.06402, 163.02341
  51.08404, 157.05518
  51.10406, 163.43484
  51.12408, 154.53275
  51.14409, 147.79516
  51.16411, 157.93053
  51.18413, 150.61675
  51.20415, 152.42822
  51.22417, 154.04288
  51.24419, 148.84360
  51.26421, 158.02222
  51.28423, 159.89560
  51.30425, 154.13058
  51.32427, 153.95066
  51.34429, 155.01091
  51.36431, 150.37636
  51.38433, 153.57262
  51.40435, 140.77093
  51.42437, 149.17589
  51.44439, 150.18366
  51.46441, 153.19729
  51.48443, 152.09922
  51.50445, 152.57470
  51.52447, 145.31058
  51.54449, 149.10285
  51.56451, 153.21161
  51.58453, 144.99817
  51.60455, 155.82342
  51.62457, 154.00032
  51.64459, 153.30636
  51.66461, 152.33314
  51.68463, 152.38210
  51.70465, 155.28973
  51.72467, 154.74215
  51.74469, 160.10347
  51.76471, 155.08316
  51.78473, 150.89150
  51.80475, 145.40609
  51.82477, 146.17989
  51.84479, 158.96947
  51.86481, 157.47521
  51.88483, 152.30308
  51.90485, 146.65909
  51.92487, 149.33945
  51.94489, 153.70468
  51.96491, 146.03945
  51.98493, 149.81843
  52.00495, 148.49264
  52.02497, 148.39355
  52.04499, 146.44994
  52.06501, 151.36655
  52.08503, 148.67997
  52.10505, 144.87824
  52.12507, 142.84900
  52.14509, 145.36525
  52.16511, 139.93516
  52.18513, 145.01743
  52.20515, 154.84581
  52.22517, 144.64878
  52.24519, 142.18542
  52.26521, 152.05740
  52.28523, 144.44356
  52.30525, 149.77516
  52.32527, 142.25601
  52.34529, 145.48245
  52.36531, 136.85711
  52.38533, 139.18191
  52.40535, 141.45333
  52.42537, 138.10100
  52.44539, 150.58114
  52.46541, 142.11229
  52.48543, 141.75090
  52.50545, 142.79858
  52.52547, 150.22138
  52.54549, 141.82100
  52.56551, 147.36242
  52.58553, 146.33849
  52.60555, 138.47258
  52.62557, 146.86265
  52.64559, 151.89721
  52.66561, 144.42045
  52.68563, 142.14336
  52.70565, 146.80260
  52.72567, 150.72360
  52.74569, 150.95396
  52.76571, 148.21822
  52.78573, 148.64905
  52.80575, 142.72597
  52.82577, 146.96484
  52.84579, 151.07884
  52.86581, 150.87392
  52.88583, 143.50509
  52.90585, 138.77461
  52.92587, 143.02389
  52.94589, 142.88312
  52.96591, 149.90227
  52.98593, 149.23236
  53.00595, 147.89360
  53.02597, 148.01499
  53.04599, 139.53306
  53.06601, 140.49569
  53.08603, 136.05471
  53.10605, 142.68498
  53.12607, 152.67496
  53.14609, 148.52435
  53.16611, 136.24064
  53.18613, 144.02545
  53.20615, 135.57477
  53.22617, 141.54263
  53.24619, 137.43396
  53.26621, 137.78270
  53.28623, 144.04782
  53.30625, 139.70140
  53.32627, 135.70458
  53.34629, 147.96127
  53.36631, 137.86185
  53.38633, 139.62897
  53.40635, 143.06594
  53.42637, 144.68704
  53.44639, 142.19758
  53.46641, 136.57012
  53.48643, 141.90022
  53.50645, 142.12024
  53.52647, 127.41926
  53.54649, 144.69945
  53.56651, 152.16869
  53.58653, 140.42133
  53.60655, 138.82070
  53.62657, 146.58996
  53.64659, 145.00997
  53.66661, 137.73563
  53.68663, 135.07123
  53.70665, 147.50397
  53.72668, 135.62166
  53.74670, 138.24671
  53.76672, 141.11229
  53.78673, 145.65702
  53.80676, 137.77201
  53.82678, 139.57422
  53.84680, 146.09290
  53.86682, 149.87241
  53.88684, 139.04593
  53.90686, 138.54451
  53.92688, 134.82196
  53.94690, 135.53662
  53.96692, 136.82548
  53.98694, 147.67007
  54.00696, 138.06181
  54.02698, 134.96058
  54.04700, 144.60816
  54.06702, 146.23523
  54.08704, 130.63695
  54.10706, 144.89420
  54.12708, 144.56461
  54.14710, 146.57413
  54.16712, 139.96965
  54.18714, 143.39877
  54.20716, 142.29574
  54.22718, 136.86334
  54.24720, 142.05697
  54.26722, 148.61229
  54.28724, 146.29397
  54.30726, 138.86713
  54.32728, 131.79054
  54.34730, 138.38767
  54.36732, 136.91153
  54.38735, 151.50893
  54.40736, 140.39983
  54.42738, 140.87152
  54.44741, 147.23120
  54.46743, 137.70252
  54.48745, 138.51102
  54.50747, 138.12038
  54.52749, 141.28614
  54.54751, 130.51492
  54.56753, 139.88838
  54.58755, 148.74505
  54.60757, 140.09788
  54.62759, 137.33682
  54.64761, 138.28783
  54.66763, 141.35295
  54.68765, 147.39736
  54.70767, 135.93651
  54.72769, 141.90062
  54.74771, 140.79039
  54.76773, 135.09228
  54.78775, 139.24573
  54.80777, 141.41684
  54.82779, 136.46251
  54.84781, 138.14061
  54.86783, 143.25833
  54.88785, 141.60761
  54.90788, 136.82516
  54.92790, 138.28832
  54.94792, 134.59595
  54.96794, 137.06740
  54.98796, 136.72923
  55.00798, 140.84895
  55.02800, 135.78194
  55.04802, 145.33523
  55.06804, 140.16912
  55.08806, 140.33760
  55.10808, 133.93829
  55.12810, 138.64339
  55.14812, 141.20244
  55.16814, 140.70073
  55.18816, 137.27081
  55.20818, 138.02705
  55.22820, 136.79961
  55.24822, 131.46913
  55.26824, 129.74416
  55.28826, 133.05638
  55.30828, 134.22086
  55.32830, 142.40982
  55.34833, 130.10855
  55.36835, 134.94991
  55.38837, 139.74409
  55.40839, 138.49344
  55.42841, 134.16716
  55.44843, 132.90346
  55.46845, 135.62532
  55.48847, 143.52414
  55.50849, 135.56491
  55.52851, 120.20105
  55.54853, 138.57117
  55.56855, 138.20815
  55.58857, 141.87820
  55.60859, 136.98224
  55.62861, 127.98593
  55.64863, 125.39839
  55.66865, 134.66303
  55.68867, 135.73541
  55.70870, 136.82933
  55.72872, 128.84874
  55.74874, 135.67520
  55.76876, 131.85162
  55.78878, 135.70042
  55.80880, 140.61034
  55.82882, 141.93304
  55.84884, 137.30270
  55.86886, 135.67666
  55.88888, 140.13350
  55.90890, 136.31188
  55.92892, 129.27666
  55.94894, 135.53162
  55.96896, 139.62271
  55.98898, 139.63289
  56.00901, 143.11735
  56.02902, 140.71852
  56.04905, 140.68107
  56.06907, 128.74381
  56.08909, 131.93099
  56.10911, 132.59786
  56.12913, 138.60972
  56.14915, 133.36022
  56.16917, 134.94786
  56.18919, 130.01840
  56.20921, 131.09259
  56.22923, 128.10743
  56.24925, 128.81084
  56.26927, 127.04097
  56.28929, 130.25286
  56.30931, 133.79428
  56.32934, 133.15428
  56.34936, 130.27819
  56.36938, 137.57352
  56.38940, 133.49335
  56.40942, 131.97038
  56.42944, 137.75055
  56.44946, 134.17104
  56.46948, 134.28532
  56.48950, 130.97743
  56.50952, 126.25766
  56.52954, 122.84560
  56.54956, 127.86892
  56.56958, 135.20701
  56.58960, 133.00279
  56.60963, 136.01889
  56.62965, 132.00304
  56.64967, 140.59915
  56.66969, 137.17204
  56.68971, 135.75238
  56.70973, 132.63180
  56.72975, 130.53971
  56.74977, 140.11024
  56.76979, 132.17077
  56.78981, 129.81037
  56.80983, 126.34039
  56.82985, 127.33534
  56.84988, 131.25155
  56.86990, 137.97664
  56.88992, 129.08939
  56.90994, 127.76717
  56.92996, 129.64852
  56.94998, 133.00246
  56.97000, 128.92773
  56.99002, 130.17722
  57.01004, 132.79841
  57.03006, 130.81013
  57.05008, 133.23431
  57.07010, 130.71052
  57.09012, 128.53791
  57.11015, 130.87332
  57.13017, 131.51075
  57.15019, 135.34643
  57.17021, 139.04958
  57.19023, 132.13411
  57.21025, 135.59112
  57.23027, 126.93754
  57.25029, 127.70454
  57.27031, 126.55479
  57.29033, 133.78005
  57.31035, 124.52850
  57.33038, 134.46211
  57.35040, 131.91871
  57.37042, 136.21128
  57.39044, 131.49565
  57.41046, 129.32461
  57.43048, 131.71316
  57.45050, 141.36269
  57.47052, 138.49011
  57.49054, 133.34111
  57.51056, 134.25070
  57.53059, 128.45715
  57.55061, 130.58278
  57.57063, 132.18091
  57.59065, 129.27585
  57.61067, 133.30034
  57.63069, 138.45591
  57.65071, 133.51974
  57.67073, 131.70801
  57.69075, 124.07300
  57.71077, 124.91476
  57.73079, 123.43309
  57.75082, 128.32555
  57.77084, 132.48828
  57.79086, 125.65997
  57.81088, 129.88433
  57.83090, 135.08737
  57.85092, 138.03991
  57.87094, 131.92712
  57.89096, 129.91765
  57.91098, 127.64996
  57.93100, 138.47582
  57.95103, 131.72836
  57.97105, 129.53847
  57.99107, 133.45126
  58.01109, 135.90427
  58.03111, 136.48245
  58.05113, 130.13222
  58.07115, 129.05159
  58.09117, 126.46309
  58.11119, 127.25655
  58.13122, 121.68396
  58.15124, 124.39807
  58.17126, 131.06272
  58.19128, 136.43600
  58.21130, 132.03609
  58.23132, 123.22880
  58.25134, 127.32248
  58.27136, 126.10145
  58.29138, 130.97269
  58.31141, 127.54814
  58.33143, 123.70519
  58.35145, 116.92641
  58.37147, 129.33534
  58.39149, 133.28427
  58.41151, 123.49888
  58.43153, 127.79085
  58.45155, 133.66016
  58.47157, 127.88409
  58.49160, 127.68158
  58.51162, 128.51307
  58.53164, 124.48733
  58.55166, 128.71217
  58.57168, 126.84318
  58.59170, 126.71730
  58.61172, 132.06641
  58.63174, 132.27889
  58.65176, 123.75985
  58.67179, 137.06696
  58.69181, 127.47913
  58.71183, 124.67314
  58.73185, 121.72647
  58.75187, 132.35777
  58.77189, 128.60394
  58.79191, 123.61625
  58.81193, 122.88345
  58.83196, 128.73512
  58.85198, 131.11361
  58.87200, 131.47729
  58.89202, 124.77521
  58.91204, 123.20802
  58.93206, 130.00528
  58.95208, 121.37045
  58.97210, 126.62046
  58.99213, 116.54832
  59.01215, 119.26491
  59.03217, 125.02256
  59.05219, 129.61296
  59.07221, 126.91959
  59.09223, 121.16811
  59.11225, 122.36667
  59.13227, 122.78171
  59.15230, 124.94462
  59.17232, 129.89213
  59.19234, 128.57649
  59.21236, 128.32874
  59.23238, 132.45306
  59.25240, 126.74609
  59.27242, 123.38779
  59.29244, 125.61176
  59.31247, 126.78587
  59.33249, 125.77980
  59.35251, 131.48426
  59.37253, 128.16792
  59.39255, 126.87385
  59.41257, 123.80383
  59.43259, 122.45220
  59.45262, 123.61406
  59.47264, 127.22702
  59.49266, 124.05717
  59.51268, 119.38285
  59.53270, 125.93456
  59.55272, 125.86306
  59.57274, 125.18151
  59.59276, 130.89113
  59.61279, 118.29970
  59.63281, 122.65687
  59.65283, 119.91065
  59.67285, 122.91174
  59.69287, 122.09188
  59.71289, 124.55281
  59.73291, 118.63507
  59.75294, 118.84502
  59.77296, 121.14498
  59.79298, 122.59633
  59.81300, 125.99531
  59.83302, 125.55256
  59.85304, 129.65658
  59.87306, 125.00550
  59.89309, 128.95127
  59.91311, 125.19377
  59.93313, 120.15116
  59.95315, 119.77657
  59.97317, 117.29222
  59.99319, 124.80967
  60.01321, 121.18957
  60.03324, 128.68152
  60.05326, 121.65328
  60.07328, 127.02894
  60.09330, 125.85615
  60.11332, 119.15445
  60.13334, 119.78377
  60.15336, 119.43316
  60.17339, 130.44147
  60.19341, 121.50201
  60.21343, 124.19952
  60.23345, 123.41826
  60.25347, 118.06739
  60.27349, 120.63779
  60.29352, 124.28540
  60.31354, 118.39161
  60.33356, 121.36386
  60.35358, 122.84256
  60.37360, 126.66426
  60.39362, 126.72505
  60.41364, 119.66633
  60.43367, 122.45481
  60.45369, 119.52963
  60.47371, 124.72516
  60.49373, 116.72411
  60.51375, 112.69058
  60.53377, 124.42178
  60.55379, 132.63615
  60.57382, 125.04843
  60.59384, 122.94104
  60.61386, 114.75976
  60.63388, 117.90187
  60.65390, 118.11345
  60.67393, 123.91277
  60.69395, 119.27472
  60.71397, 125.28559
  60.73399, 111.97452
  60.75401, 115.99032
  60.77403, 122.26836
  60.79405, 116.52970
  60.81408, 118.58874
  60.83410, 119.94365
  60.85412, 121.78972
  60.87414, 115.53403
  60.89416, 118.09131
  60.91418, 120.14293
  60.93421, 121.86268
  60.95423, 128.65688
  60.97425, 122.78651
  60.99427, 122.78720
  61.01429, 114.43385
  61.03431, 123.32176
  61.05434, 124.36417
  61.07436, 126.35521
  61.09438, 120.81110
  61.11440, 119.03761
  61.13442, 125.25220
  61.15444, 123.10618
  61.17447, 122.59334
  61.19449, 118.17893
  61.21451, 122.37741
  61.23453, 127.52230
  61.25455, 124.23781
  61.27458, 120.04775
  61.29460, 119.15488
  61.31462, 121.40342
  61.33464, 122.12676
  61.35466, 125.59015
  61.37468, 121.42557
  61.39471, 120.80914
  61.41473, 125.15012
  61.43475, 122.83605
  61.45477, 124.21652
  61.47479, 124.08774
  61.49481, 122.98708
  61.51484, 125.07579
  61.53486, 119.18882
  61.55488, 116.57134
  61.57490, 119.49886
  61.59492, 124.12001
  61.61495, 117.74281
  61.63497, 126.51259
  61.65499, 121.37817
  61.67501, 124.55625
  61.69503, 119.54661
  61.71506, 116.17577
  61.73508, 122.89111
  61.75510, 121.46489
  61.77512, 121.52732
  61.79514, 126.89335
  61.81516, 126.82093
  61.83519, 125.13754
  61.85521, 120.06974
  61.87523, 122.95189
  61.89525, 119.12822
  61.91527, 121.39881
  61.93529, 117.95062
  61.95532, 109.54403
  61.97534, 118.59739
  61.99536, 122.77708
  62.01538, 122.43474
  62.03540, 122.61480
  62.05543, 116.28974
  62.07545, 114.16717
  62.09547, 118.02490
  62.11549, 118.66662
  62.13551, 117.38981
  62.15554, 122.36063
  62.17556, 116.59531
  62.19558, 118.44864
  62.21560, 119.73666
  62.23562, 117.91213
  62.25565, 123.66881
  62.27567, 121.11579
  62.29569, 112.22381
  62.31571, 117.84322
  62.33573, 119.64061
  62.35576, 121.95727
  62.37578, 119.56707
  62.39580, 119.69880
  62.41582, 118.28147
  62.43584, 114.19890
  62.45587, 116.32625
  62.47589, 117.34451
  62.49591, 128.01160
  62.51593, 123.24310
  62.53595, 116.16918
  62.55598, 116.97633
  62.57600, 125.85185
  62.59602, 121.12932
  62.61604, 119.39599
  62.63606, 120.86657
  62.65609, 120.89673
  62.67611, 112.37278
  62.69613, 111.92987
  62.71615, 119.78331
  62.73617, 113.58249
  62.75620, 114.48868
  62.77622, 116.30077
  62.79624, 124.65597
  62.81626, 120.59864
  62.83629, 122.36268
  62.85631, 120.11916
  62.87633, 107.50693
  62.89635, 114.94897
  62.91637, 120.07896
  62.93640, 116.08228
  62.95642, 122.55989
  62.97644, 121.12331
  62.99646, 126.99175
  63.01648, 120.26159
  63.03651, 116.52642
  63.05653, 126.56787
  63.07655, 118.50034
  63.09657, 120.25393
  63.11659, 119.89128
  63.13662, 117.97777
  63.15664, 120.53080
  63.17666, 114.84214
  63.19668, 122.04039
  63.21671, 122.27253
  63.23673, 120.73112
  63.25675, 115.05499
  63.27677, 120.12805
  63.29679, 113.44372
  63.31682, 115.18715
  63.33684, 120.81015
  63.35686, 113.88750
  63.37688, 120.58240
  63.39691, 114.16968
  63.41693, 116.44636
  63.43695, 123.55880
  63.45697, 120.24159
  63.47700, 120.29810
  63.49702, 123.25863
  63.51704, 123.87761
  63.53706, 119.21686
  63.55708, 119.44605
  63.57711, 118.58831
  63.59713, 125.06291
  63.61715, 118.63893
  63.63717, 119.87978
  63.65720, 117.88366
  63.67722, 117.73387
  63.69724, 127.31091
  63.71726, 127.46353
  63.73728, 117.30414
  63.75731, 126.71560
  63.77733, 126.94968
  63.79735, 125.13844
  63.81737, 118.80599
  63.83740, 109.45609
  63.85742, 116.93567
  63.87744, 116.86722
  63.89746, 120.12693
  63.91749, 118.85579
  63.93751, 114.57636
  63.95753, 121.12415
  63.97755, 122.61202
  63.99758, 123.51533
  64.01760, 123.43160
  64.03762, 117.99522
  64.05764, 119.33095
  64.07766, 120.67354
  64.09769, 118.45735
  64.11771, 118.70250
  64.13773, 119.75754
  64.15775, 125.50083
  64.17778, 125.99155
  64.19780, 127.65204
  64.21782, 121.75657
  64.23784, 120.03506
  64.25787, 124.57183
  64.27789, 117.04910
  64.29791, 117.45270
  64.31793, 124.02315
  64.33796, 120.67803
  64.35798, 125.64162
  64.37800, 122.39727
  64.39802, 125.48662
  64.41804, 127.19914
  64.43807, 123.36776
  64.45809, 115.30581
  64.47811, 123.84207
  64.49814, 128.04751
  64.51816, 131.65641
  64.53818, 139.42206
  64.55820, 135.03133
  64.57823, 131.69771
  64.59825, 132.51495
  64.61827, 136.35939
  64.63829, 142.92228
  64.65832, 141.26223
  64.67834, 146.95163
  64.69836, 143.65755
  64.71838, 150.21008
  64.73841, 152.37035
  64.75843, 156.75617
  64.77845, 171.95578
  64.79847, 166.56542
  64.81850, 190.56837
  64.83852, 191.75975
  64.85854, 206.13531
  64.87856, 230.58622
  64.89859, 251.38862
  64.91861, 265.57126
  64.93863, 290.18232
  64.95865, 323.30974
  64.97868, 343.97521
  64.99870, 377.56462
  65.01872, 420.85853
  65.03875, 408.96643
  65.05877, 392.71513
  65.07879, 377.12120
  65.09881, 359.23007
  65.11884, 346.88556
  65.13886, 333.16134
  65.15888, 325.08660
  65.17890, 325.56291
  65.19893, 323.74088
  65.21895, 300.73796
  65.23897, 280.62111
  65.25899, 271.12694
  65.27902, 255.39213
  65.29904, 236.09896
  65.31906, 220.19407
  65.33909, 200.83297
  65.35911, 177.18621
  65.37913, 180.24842
  65.39915, 172.64861
  65.41918, 160.14263
  65.43920, 151.74387
  65.45922, 155.06757
  65.47924, 149.04257
  65.49927, 138.81164
  65.51929, 137.51700
  65.53931, 134.60151
  65.55933, 130.49825
  65.57936, 123.90851
  65.59938, 129.55719
  65.61940, 126.06514
  65.63943, 122.71863
  65.65945, 121.18047
  65.67947, 129.50182
  65.69949, 119.42785
  65.71952, 116.92021
  65.73954, 118.67407
  65.75956, 125.23081
  65.77959, 123.28858
  65.79961, 129.92299
  65.81963, 119.87111
  65.83965, 116.96063
  65.85968, 119.94321
  65.87970, 117.76336
  65.89972, 114.37847
  65.91975, 116.60821
  65.93977, 117.65916
  65.95979, 119.34351
  65.97981, 112.65509
  65.99984, 115.54164
  66.01986, 117.65701
  66.03988, 110.32425
  66.05991, 117.26116
  66.07993, 119.88911
  66.09995, 118.79306
  66.11997, 111.51136
  66.14000, 114.65048
  66.16002, 116.01986
  66.18004, 112.01924
  66.20007, 118.17515
  66.22009, 118.81145
  66.24011, 110.75892
  66.26014, 116.05805
  66.28016, 113.80453
  66.30018, 111.94901
  66.32021, 117.47278
  66.34023, 112.75103
  66.36025, 112.91947
  66.38027, 109.06286
  66.40030, 110.60226
  66.42032, 110.65493
  66.44034, 108.03022
  66.46037, 114.64171
  66.48039, 113.22471
  66.50041, 113.50246
  66.52043, 109.95698
  66.54046, 114.36742
  66.56048, 115.98762
  66.58050, 113.04490
  66.60053, 107.55736
  66.62055, 114.15671
  66.64057, 113.06222
  66.66060, 117.25073
  66.68062, 114.94423
  66.70064, 107.58303
  66.72066, 110.07677
  66.74069, 117.74053
  66.76071, 112.69425
  66.78073, 113.35109
  66.80076, 110.95619
  66.82078, 111.42597
  66.84080, 107.54133
  66.86083, 108.37374
  66.88085, 116.94882
  66.90087, 109.54030
  66.92090, 114.16835
  66.94092, 111.78596
  66.96094, 114.05844
  66.98096, 116.52444
  67.00099, 118.48020
  67.02101, 113.34097
  67.04103, 113.45504
  67.06106, 111.98714
  67.08108, 112.10068
  67.10110, 112.50961
  67.12113, 110.76431
  67.14115, 109.57998
  67.16117, 113.66030
  67.18120, 117.11965
  67.20122, 111.77842
  67.22124, 106.78718
  67.24127, 107.59423
  67.26129, 104.70706
  67.28131, 110.73312
  67.30134, 109.26811
  67.32136, 107.20617
  67.34138, 113.95217
  67.36141, 110.42420
  67.38143, 111.91839
  67.40145, 112.20430
  67.42148, 108.22829
  67.44150, 101.40909
  67.46152, 108.80206
  67.48155, 108.43750
  67.50157, 107.26900
  67.52159, 113.58866
  67.54162, 105.69431
  67.56164, 110.57418
  67.58166, 109.56071
  67.60168, 115.02424
  67.62171, 106.70396
  67.64173, 102.40956
  67.66176, 111.68087
  67.68178, 108.67461
  67.70180, 106.40365
  67.72182, 105.06985
  67.74185, 116.62989
  67.76187, 109.16405
  67.78190, 111.60202
  67.80192, 108.08145
  67.82194, 111.46663
  67.84196, 103.26470
  67.86199, 102.15791
  67.88201, 109.50933
  67.90204, 110.39731
  67.92206, 108.02980
  67.94208, 107.62303
  67.96210, 105.97001
  67.98213, 112.01926
  68.00215, 115.93975
  68.02218, 108.10113
  68.04220, 114.16445
  68.06222, 108.09223
  68.08225, 110.96177
  68.10227, 107.36986
  68.12229, 111.81820
  68.14232, 121.41838
  68.16234, 110.62924
  68.18236, 112.44924
  68.20239, 113.01749
  68.22241, 112.30453
  68.24243, 111.70294
  68.26246, 106.96195
  68.28248, 115.85111
  68.30250, 119.93966
  68.32253, 115.72270
  68.34255, 111.24936
  68.36257, 109.83339
  68.38260, 109.27249
  68.40262, 110.49506
  68.42264, 116.58595
  68.44267, 112.73891
  68.46269, 112.83383
  68.48272, 111.07975
  68.50274, 110.12507
  68.52276, 103.87033
  68.54279, 104.85885
  68.56281, 106.89116
  68.58283, 109.60947
  68.60286, 113.24596
  68.62288, 114.62223
  68.64290, 107.44061
  68.66293, 110.75908
  68.68295, 103.54211
  68.70297, 107.07595
  68.72300, 112.51019
  68.74302, 104.68663
  68.76305, 114.41717
  68.78307, 109.61351
  68.80309, 112.69294
  68.82312, 108.97709
  68.84314, 106.98835
  68.86316, 113.22985
  68.88319, 110.13290
  68.90321, 111.76683
  68.92323, 110.43434
  68.94326, 108.96080
  68.96328, 111.70503
  68.98331, 106.18557
  69.00333, 105.80810
  69.02335, 114.96572
  69.04338, 109.79780
  69.06340, 104.85301
  69.08342, 107.69226
  69.10345, 111.00191
  69.12347, 112.26968
  69.14350, 111.07159
  69.16352, 102.48384
  69.18354, 116.73527
  69.20357, 115.18951
  69.22359, 106.41282
  69.24362, 108.16175
  69.26364, 107.51736
  69.28366, 113.82633
  69.30369, 109.61877
  69.32371, 105.61272
  69.34373, 113.12730
  69.36376, 104.16191
  69.38378, 111.07590
  69.40380, 105.88439
  69.42383, 105.27208
  69.44385, 106.39831
  69.46388, 108.33444
  69.48390, 103.92999
  69.50392, 112.68832
  69.52395, 108.74011
  69.54397, 107.62491
  69.56400, 102.82894
  69.58402, 107.26842
  69.60404, 108.80643
  69.62407, 106.85339
  69.64409, 106.70835
  69.66412, 107.92719
  69.68414, 107.97398
  69.70416, 102.06559
  69.72419, 110.65082
  69.74421, 105.97120
  69.76424, 106.70968
  69.78426, 101.87821
  69.80428, 112.78605
  69.82431, 102.44408
  69.84433, 106.75998
  69.86435, 102.05437
  69.88438, 105.19373
  69.90440, 101.59874
  69.92443, 108.02716
  69.94445, 107.49244
  69.96447, 103.92345
  69.98450, 105.59936
  70.00452, 114.71152
  70.02455, 111.97053
  70.04457, 106.66052
  70.06459, 113.33785
  70.08462, 103.26583
  70.10464, 107.36231
  70.12467, 109.84233
  70.14469, 113.39966
  70.16471, 105.70763
  70.18474, 108.27698
  70.20476,  98.95901
  70.22479,  97.63422
  70.24481, 108.00278
  70.26483, 105.59253
  70.28486, 106.87566
  70.30488, 104.32547
  70.32491, 108.29993
  70.34493, 101.81009
  70.36495, 105.79683
  70.38498, 100.64272
  70.40500, 109.12828
  70.42503, 111.35731
  70.44505, 104.85425
  70.46508, 111.11923
  70.48510, 107.35224
  70.50512, 108.53075
  70.52515, 110.53135
  70.54517, 109.32996
  70.56520, 107.42107
  70.58522, 107.04301
  70.60525, 100.61107
  70.62527, 108.60839
  70.64529, 111.91937
  70.66532, 116.52741
  70.68534, 106.92417
  70.70537, 107.53752
  70.72539, 105.83297
  70.74541, 100.86297
  70.76544, 109.68322
  70.78546, 106.81892
  70.80549, 105.13917
  70.82551, 108.27156
  70.84553, 113.17542
  70.86556, 109.20633
  70.88558, 106.97299
  70.90561, 111.56547
  70.92563, 107.99161
  70.94566, 110.56715
  70.96568, 102.32100
  70.98570, 107.53566
  71.00573, 109.44885
  71.02575, 101.30993
  71.04578, 105.97856
  71.06580, 106.23529
  71.08583, 104.99634
  71.10585, 110.54507
  71.12587, 108.02054
  71.14590, 111.23216
  71.16592, 110.83902
  71.18595, 101.23283
  71.20597, 104.38703
  71.22600, 104.79343
  71.24602, 109.99128
  71.26604, 109.25463
  71.28607, 102.53175
  71.30609, 106.49922
  71.32612,  98.97874
  71.34614, 102.34379
  71.36617, 105.95175
  71.38619, 107.24298
  71.40622, 102.65832
  71.42624, 106.90110
  71.44627, 107.37340
  71.46629, 105.07821
  71.48631, 109.20674
  71.50634, 106.31902
  71.52636, 107.85764
  71.54639, 107.73667
  71.56641, 107.08559
  71.58644, 107.93822
  71.60646, 104.28167
  71.62649, 103.56501
  71.64651, 109.71686
  71.66653, 108.38571
  71.68656, 102.06978
  71.70658, 101.99098
  71.72661,  94.54454
  71.74663,  98.43496
  71.76666, 104.98998
  71.78668, 110.96512
  71.80671, 110.75204
  71.82673, 105.69184
  71.84675, 104.62252
  71.86678, 103.62058
  71.88680, 108.05346
  71.90683, 105.08242
  71.92685,  98.95259
  71.94688, 103.70102
  71.96690, 107.50940
  71.98693, 108.44457
  72.00695,  98.22333
  72.02698, 105.54069
  72.04700, 111.62300
  72.06703, 108.71674
  72.08705, 110.92012
  72.10707, 103.28160
  72.12710, 101.25075
  72.14712, 107.73718
  72.16715, 105.92837
  72.18717, 105.98635
  72.20720, 101.87913
  72.22722,  98.25469
  72.24725, 105.52466
  72.26727, 103.95235
  72.28730, 109.85719
  72.30732, 101.72704
  72.32734, 104.29694
  72.34737, 108.48368
  72.36739, 103.70399
  72.38742, 105.24332
  72.40744, 103.02176
  72.42747,  99.71036
  72.44749, 107.84106
  72.46752, 103.05162
  72.48754,  99.52808
  72.50757, 100.40839
  72.52759, 101.24690
  72.54762, 106.64596
  72.56764, 108.64617
  72.58767, 107.74525
  72.60769, 106.44950
  72.62772, 108.14643
  72.64774, 110.54385
  72.66777, 105.76495
  72.68779, 107.22077
  72.70782, 104.21806
  72.72784, 110.54975
  72.74786, 105.82627
  72.76789,  98.97679
  72.78791, 107.22933
  72.80794,  98.72619
  72.82797, 104.63774
  72.84799, 101.85546
  72.86801, 101.32651
  72.88804, 105.75862
  72.90806, 104.95725
  72.92809, 108.10466
  72.94811,  94.44885
  72.96814, 104.32357
  72.98816, 103.50521
  73.00819, 103.45943
  73.02821, 110.85283
  73.04824, 104.27600
  73.06826, 104.34796
  73.08829, 107.71278
  73.10831, 106.26463
  73.12834, 108.98005
  73.14836, 109.55490
  73.16839, 101.97346
  73.18841, 106.15294
  73.20844, 106.75607
  73.22846, 108.54269
  73.24849, 107.54169
  73.26851, 113.88347
  73.28854, 106.34406
  73.30856, 104.15238
  73.32859, 107.15345
  73.34861, 105.44447
  73.36864, 107.24768
  73.38866, 100.65127
  73.40869, 103.28205
  73.42871,  97.86828
  73.44874,  99.01567
  73.46876, 100.75717
  73.48879, 106.86393
  73.50881, 103.38982
  73.52884, 108.54530
  73.54886, 102.55869
  73.56889, 109.04015
  73.58891, 108.29029
  73.60894, 104.69648
  73.62896,  97.37347
  73.64899, 105.19884
  73.66901, 100.80395
  73.68904, 102.55572
  73.70906, 104.67717
  73.72909, 105.94454
  73.74911, 104.92068
  73.76914, 103.38680
  73.78916, 106.95510
  73.80919, 101.98929
  73.82921, 101.60078
  73.84924, 100.59458
  73.86926, 100.37965
  73.88929, 106.56008
  73.90932, 105.98955
  73.92934, 102.65942
  73.94937, 104.70237
  73.96939,  98.87159
  73.98942, 100.10044
  74.00944, 105.06264
  74.02947, 105.21242
  74.04949, 110.38884
  74.06952, 106.91278
  74.08954, 104.07181
  74.10957, 105.80008
  74.12959, 104.34116
  74.14962, 101.00547
  74.16964,  98.90956
  74.18967,  94.79409
  74.20969, 104.39759
  74.22972, 103.04133
  74.24974, 104.48332
  74.26977, 103.89191
  74.28980, 101.62343
  74.30982, 113.17479
  74.32985, 104.32506
  74.34987, 113.42581
  74.36990, 109.81567
  74.38992, 110.97207
  74.40995, 110.68957
  74.42997, 113.51275
  74.45000, 105.71262
  74.47002, 121.95558
  74.49005, 119.90273
  74.51008, 112.75492
  74.53010, 119.09532
  74.55013, 123.82043
  74.57015, 138.40666
  74.59018, 140.14056
  74.61020, 142.14292
  74.63023, 144.18905
  74.65025, 146.62595
  74.67028, 152.92969
  74.69030, 152.09749
  74.71033, 150.28128
  74.73036, 140.34238
  74.75038, 134.58614
  74.77041, 130.16600
  74.79043, 121.99646
  74.81046, 132.80774
  74.83048, 131.22723
  74.85051, 125.98312
  74.87053, 129.49609
  74.89056, 126.54447
  74.91058, 131.33361
  74.93061, 124.19929
  74.95064, 118.90018
  74.97066, 121.82268
  74.99069, 117.73716
  75.01071, 105.99853
  75.03074, 109.88109
  75.05076, 106.23007
  75.07079, 109.02681
  75.09082, 113.83042
  75.11084, 105.73206
  75.13087, 109.51255
  75.15089, 101.77186
  75.17092, 105.73482
  75.19094, 103.32147
  75.21097, 101.24236
  75.23099, 103.35260
  75.25102, 108.34185
  75.27105, 108.18757
  75.29107, 100.30812
  75.31110,  96.29896
  75.33112,  99.77529
  75.35115, 104.39822
  75.37117, 108.38613
  75.39120, 102.47629
  75.41122, 101.61963
  75.43125, 101.93093
  75.45128, 104.32856
  75.47130, 103.10814
  75.49133,  99.31279
  75.51135,  98.92394
  75.53138,  96.83759
  75.55141, 101.29368
  75.57143, 106.28706
  75.59146, 103.47520
  75.61148, 106.19234
  75.63151, 101.80547
  75.65153, 102.24771
  75.67156, 103.64897
  75.69159, 103.88194
  75.71161, 103.50883
  75.73164, 102.00402
  75.75166,  96.57105
  75.77169,  94.81881
  75.79171,  99.45206
  75.81174, 103.00449
  75.83177, 102.34107
  75.85179, 107.74917
  75.87182, 107.00927
  75.89184, 101.23981
  75.91187, 102.65751
  75.93190, 105.46745
  75.95192, 104.30781
  75.97195, 102.40748
  75.99197, 106.14420
  76.01200,  99.82151
  76.03202, 103.55782
  76.05205, 105.45834
  76.07208, 101.66220
  76.09210, 103.06727
  76.11213,  94.43279
  76.13215, 102.81753
  76.15218, 102.96825
  76.17221, 100.55698
  76.19223,  96.06440
  76.21226,  97.84148
  76.23229, 106.72011
  76.25231, 101.82714
  76.27234,  98.31108
  76.29236, 102.64625
  76.31239,  95.57794
  76.33242,  97.63983
  76.35244,  92.98123
  76.37247, 103.73651
  76.39249, 100.99341
  76.41252, 104.62272
  76.43255,  98.93814
  76.45257, 100.58573
  76.47260, 104.52590
  76.49262, 100.93436
  76.51265, 103.32442
  76.53268, 108.01326
  76.55270, 100.60021
  76.57273, 103.70713
  76.59276, 101.34028
  76.61278, 107.13036
  76.63281, 103.88723
  76.65283, 104.14798
  76.67286, 100.92863
  76.69289, 101.61576
  76.71291,  98.90265
  76.73294, 103.87288
  76.75296, 104.39602
  76.77299,  97.42013
  76.79302,  98.47106
  76.81304,  99.90035
  76.83307,  97.89046
  76.85310, 102.91445
  76.87312, 103.38274
  76.89315, 104.84059
  76.91317,  99.98659
  76.93320, 106.71364
  76.95323, 104.92869
  76.97325, 103.03398
  76.99328, 106.50235
  77.01331, 106.13841
  77.03333, 101.53587
  77.05336, 102.72520
  77.07338, 100.70537
  77.09341,  97.65162
  77.11344, 101.83665
  77.13346, 104.31308
  77.15349, 102.04150
  77.17352,  98.08668
  77.19354,  98.01131
  77.21357, 100.34537
  77.23359, 103.36941
  77.25362, 101.78979
  77.27365, 104.57790
  77.29367, 101.87738
  77.31370, 106.24989
  77.33373, 104.14911
  77.35375, 103.19588
  77.37378, 103.99852
  77.39381, 104.04753
  77.41383, 104.85970
  77.43386, 103.96779
  77.45388, 103.18201
  77.47391, 100.11094
  77.49394, 103.84023
  77.51396, 100.84997
  77.53399, 102.37117
  77.55402, 105.34661
  77.57404,  99.27706
  77.59407, 104.20860
  77.61410, 105.99217
  77.63412, 102.02025
  77.65415,  98.14756
  77.67418, 105.16648
  77.69420, 103.37126
  77.71423, 103.55432
  77.73426, 101.78898
  77.75428, 101.22560
  77.77431, 101.47950
  77.79433,  97.64062
  77.81436,  98.36709
  77.83439, 102.82173
  77.85442,  99.45085
  77.87444, 102.20448
  77.89447, 107.16433
  77.91450, 104.64948
  77.93452,  98.26344
  77.95455, 102.45053
  77.97457, 106.16196
  77.99460, 105.12824
  78.01463, 101.32359
  78.03466, 105.31772
  78.05468, 106.56210
  78.07471, 106.04157
  78.09473, 101.81317
  78.11476,  98.25393
  78.13479, 100.69524
  78.15481, 109.38606
  78.17484, 105.70692
  78.19487, 102.32329
  78.21490, 106.10861
  78.23492,  98.36517
  78.25495,  95.26378
  78.27498, 101.79179
  78.29500, 100.93485
  78.31503, 103.63903
  78.33506, 101.44086
  78.35508, 100.86561
  78.37511,  97.96961
  78.39514, 103.97650
  78.41516,  99.50916
  78.43519, 104.47107
  78.45522, 111.02265
  78.47524, 108.68998
  78.49527, 105.27620
  78.51530, 101.86134
  78.53532, 106.20732
  78.55535, 104.96063
  78.57538, 105.76791
  78.59541, 107.26865
  78.61543, 101.13944
  78.63546, 105.22049
  78.65548, 100.62710
  78.67551, 101.26657
  78.69554, 102.80577
  78.71557, 105.26551
  78.73559, 102.34140
  78.75562, 108.23357
  78.77565, 105.43184
  78.79567, 104.56578
  78.81570,  99.64680
  78.83573, 108.44949
  78.85576, 104.39768
  78.87578,  99.52333
  78.89581,  97.18625
  78.91584, 103.16315
  78.93586, 103.23633
  78.95589, 103.30283
  78.97592, 102.56407
  78.99594, 105.29772
  79.01597, 106.05902
  79.03600, 102.10266
  79.05602, 106.17489
  79.07605, 100.85213
  79.09608,  96.21694
  79.11611, 100.80883
  79.13613, 100.45267
  79.15616, 103.13750
  79.17619, 105.69633
  79.19621, 102.00130
  79.21624, 100.87348
  79.23627,  95.38935
  79.25630, 101.11970
  79.27632, 100.04681
  79.29635,  95.81872
  79.31638, 101.53147
  79.33640,  98.65222
  79.35643,  96.20483
  79.37646,  99.30519
  79.39649, 107.55064
  79.41651, 101.83290
  79.43654,  99.46978
  79.45657, 106.07542
  79.47659, 103.37848
  79.49662, 103.26185
  79.51665, 103.41557
  79.53668, 100.48892
  79.55670, 107.87019
  79.57673,  99.15014
  79.59676, 103.78399
  79.61678, 101.05372
  79.63681, 101.39432
  79.65684,  99.57695
  79.67687, 104.60378
  79.69689, 101.09324
  79.71692, 105.34584
  79.73695, 104.55259
  79.75698, 102.19614
  79.77700,  99.19197
  79.79703,  94.60628
  79.81706,  99.54853
  79.83709,  99.92005
  79.85711, 105.32038
  79.87714, 105.49377
  79.89717, 102.83673
  79.91719, 110.76131
  79.93722, 103.15592
  79.95725,  99.61590
  79.97728, 100.79425
  79.99730, 101.76373
  80.01733, 100.92252
  80.03736, 103.67245
  80.05739, 102.41801
  80.07741,  96.90302
  80.09744,  99.72831
  80.11747, 102.53141
  80.13750, 106.29759
  80.15752, 105.89479
  80.17755, 108.43359
  80.19758, 103.79673
  80.21761, 107.99229
  80.23763, 107.24753
  80.25766, 106.02689
  80.27769, 103.70773
  80.29772, 111.06854
  80.31774,  97.69728
  80.33777,  98.75177
  80.35780, 100.98607
  80.37783,  99.77515
  80.39785, 106.18672
  80.41788, 108.19787
  80.43791, 105.52835
  80.45794, 106.81251
  80.47797, 103.72534
  80.49799, 101.12180
  80.51802, 106.22580
  80.53805, 102.34949
  80.55807, 102.33228
  80.57810, 107.47571
  80.59813, 102.14518
  80.61816, 107.96627
  80.63819,  96.83703
  80.65821, 100.26461
  80.67824, 107.85737
  80.69827, 100.74080
  80.71830,  93.67729
  80.73832, 106.16040
  80.75835, 103.97424
  80.77838,  99.96355
  80.79841, 102.36502
  80.81843, 104.80406
  80.83846, 110.21176
  80.85849,  98.11982
  80.87852, 105.23008
  80.89855,  96.02600
  80.91857, 103.22515
  80.93860, 103.33580
  80.95863, 102.17933
  80.97866, 104.77873
  80.99869, 104.85558
  81.01871, 107.52786
  81.03874, 108.32364
  81.05877, 108.00138
  81.07880, 103.44028
  81.09882, 103.53447
  81.11885, 103.19815
  81.13888, 104.69800
  81.15891, 105.04105
  81.17894, 101.72886
  81.19897,  95.63861
  81.21899, 104.67594
  81.23902, 109.67577
  81.25905, 107.98237
  81.27908, 102.74180
  81.29910, 107.34451
  81.31913, 106.72046
  81.33916, 105.07214
  81.35919, 105.60982
  81.37922, 104.76584
  81.39924, 110.45824
  81.41927, 105.39609
  81.43930, 104.41558
  81.45933, 105.54007
  81.47936, 105.33286
  81.49938, 106.78577
  81.51941, 111.00517
  81.53944, 111.34731
  81.55947, 108.31993
  81.57950, 108.89507
  81.59952, 112.68076
  81.61955, 112.87115
  81.63958, 108.98664
  81.65961, 116.17143
  81.67964, 112.44746
  81.69966, 110.95482
  81.71969, 116.51209
  81.73972, 112.53982
  81.75975, 116.71111
  81.77978, 124.99344
  81.79981, 123.66469
  81.81983, 122.62973
  81.83986, 117.88873
  81.85989, 123.01436
  81.87992, 130.01670
  81.89995, 127.98699
  81.91998, 135.81765
  81.94000, 136.40043
  81.96003, 140.04962
  81.98006, 148.17324
  82.00009, 151.44665
  82.02012, 155.69763
  82.04014, 165.56360
  82.06017, 172.93594
  82.08020, 183.34081
  82.10023, 190.97727
  82.12026, 209.45556
  82.14029, 215.62941
  82.16031, 247.79486
  82.18034, 275.16217
  82.20037, 305.13029
  82.22040, 349.14280
  82.24043, 384.30599
  82.26046, 438.24216
  82.28048, 484.36278
  82.30051, 538.22995
  82.32054, 580.62235
  82.34057, 605.74582
  82.36060, 612.69066
  82.38063, 588.52283
  82.40066, 560.66513
  82.42068, 514.59694
  82.44071, 478.71779
  82.46074, 448.31976
  82.48077, 428.00993
  82.50080, 409.51855
  82.52082, 409.38084
  82.54085, 410.27520
  82.56088, 410.33994
  82.58091, 424.07049
  82.60094, 413.91500
  82.62097, 383.79637
  82.64100, 367.41982
  82.66103, 334.94417
  82.68105, 305.29792
  82.70108, 267.25995
  82.72111, 248.89406
  82.74114, 230.78288
  82.76117, 219.66232
  82.78120, 194.54796
  82.80122, 183.05437
  82.82125, 173.69791
  82.84128, 161.53405
  82.86131, 167.02764
  82.88134, 157.29543
  82.90137, 148.05135
  82.92140, 140.36070
  82.94143, 128.07592
  82.96145, 126.40890
  82.98148, 126.38900
  83.00151, 132.27065
  83.02154, 128.30243
  83.04157, 117.84084
  83.06160, 114.28985
  83.08163, 117.16794
  83.10165, 113.82049
  83.12168, 117.73024
  83.14171, 118.12689
  83.16174, 114.52803
  83.18177, 113.04996
  83.20180, 105.39021
  83.22183, 112.03135
  83.24186, 107.96323
  83.26188, 110.25623
  83.28191, 113.39502
  83.30194, 113.44794
  83.32197, 106.06120
  83.34200, 108.68034
  83.36203, 105.34622
  83.38206, 104.67627
  83.40209, 103.64212
  83.42212, 103.64890
  83.44214, 107.00374
  83.46217, 100.94309
  83.48220, 106.26847
  83.50223, 106.00877
  83.52226, 105.12117
  83.54229, 101.62067
  83.56232, 101.98968
  83.58235, 102.54602
  83.60238, 103.70255
  83.62240, 106.75904
  83.64243, 105.88768
  83.66246, 104.93255
  83.68249, 102.92869
  83.70252, 104.80792
  83.72255, 104.45297
  83.74258, 103.11032
  83.76261, 100.21665
  83.78264, 107.08216
  83.80267, 103.27788
  83.82269, 106.68837
  83.84272,  98.72038
  83.86275,  98.93223
  83.88278,  93.71718
  83.90281,  96.87070
  83.92284,  95.85545
  83.94287, 103.82341
  83.96290, 106.46570
  83.98293,  99.86527
  84.00296,  94.52653
  84.02299, 100.83923
  84.04302, 104.02466
  84.06305,  94.78963
  84.08307,  99.57640
  84.10310,  98.06449
  84.12313, 101.29000
  84.14316, 102.01496
  84.16319, 102.78380
  84.18322, 100.93276
  84.20325, 105.28000
  84.22328,  98.06117
  84.24331, 106.33413
  84.26334, 105.79678
  84.28337, 102.61334
  84.30339,  98.30564
  84.32342,  99.40417
  84.34345, 102.97418
  84.36348, 104.36218
  84.38351, 100.24518
  84.40354, 100.89897
  84.42357,  97.07662
  84.44360, 101.35905
  84.46363,  99.40056
  84.48366, 107.08165
  84.50369, 103.91592
  84.52372, 107.07551
  84.54375, 102.32672
  84.56378,  98.67385
  84.58381,  97.05483
  84.60384, 100.77965
  84.62386, 100.50525
  84.64389,  94.90701
  84.66392, 100.01319
  84.68395,  96.76303
  84.70398,  97.37661
  84.72401, 101.28748
  84.74404, 101.64161
  84.76407, 102.63689
  84.78410, 105.60451
  84.80413, 103.78054
  84.82416,  95.50053
  84.84419,  99.53639
  84.86422,  95.77115
  84.88425,  97.76831
  84.90428, 100.39754
  84.92431,  96.46433
  84.94434,  99.45864
  84.96437,  98.47701
  84.98440, 103.55183
  85.00443,  98.22805
  85.02446, 104.35658
  85.04449, 100.63867
  85.06451,  98.04683
  85.08454,  97.42262
  85.10457,  92.84627
  85.12460, 103.45026
  85.14463, 107.08616
  85.16466, 105.22213
  85.18469,  99.74585
  85.20472,  98.26945
  85.22475, 103.36109
  85.24478, 100.50620
  85.26481,  96.73892
  85.28484,  96.00580
  85.30487, 100.96331
  85.32490, 102.08011
  85.34493,  95.04878
  85.36496,  95.65859
  85.38499,  93.86583
  85.40502,  99.62775
  85.42505,  93.33751
  85.44508,  99.72024
  85.46511, 101.07273
  85.48514, 102.06702
  85.50517,  97.75545
  85.52520,  99.54276
  85.54523, 102.69831
  85.56526, 107.10576
  85.58529,  98.82597
  85.60532,  95.44386
  85.62535,  96.63783
  85.64538, 105.99985
  85.66541, 103.54681
  85.68544,  95.89404
  85.70547, 104.12144
  85.72550,  96.36196
  85.74553,  97.76628
  85.76556, 104.27041
  85.78559, 102.05044
  85.80562,  97.30342
  85.82565,  95.16594
  85.84568,  95.36293
  85.86571,  98.26636
  85.88574,  93.83208
  85.90577,  96.77772
  85.92580, 104.31339
  85.94583, 101.48769
  85.96586, 103.79133
  85.98589,  96.90659
  86.00592,  97.65123
  86.02595,  96.81521
  86.04598,  92.92064
  86.06601, 103.85997
  86.08604,  95.95904
  86.10607,  95.65793
  86.12610,  97.95440
  86.14613,  99.77626
  86.16616,  99.85780
  86.18619, 104.29718
  86.20622, 100.85725
  86.22625,  93.78474
  86.24628,  94.74379
  86.26631,  97.90727
  86.28634, 101.78608
  86.30637, 101.10795
  86.32640,  98.58303
  86.34643,  96.65113
  86.36646,  98.99563
  86.38649,  98.39717
  86.40652,  98.06813
  86.42655,  92.70118
  86.44658,  95.09115
  86.46661,  97.59414
  86.48664,  98.81290
  86.50667,  98.31757
  86.52670,  96.41668
  86.54673, 100.08777
  86.56676,  99.20517
  86.58679,  99.64464
  86.60683,  94.78046
  86.62686,  97.41831
  86.64689,  97.40076
  86.66692,  94.40146
  86.68695, 100.77995
  86.70698,  97.65989
  86.72701, 103.46456
  86.74704,  98.53381
  86.76707,  96.03507
  86.78710,  99.60808
  86.80713,  97.21002
  86.82716, 100.74991
  86.84719,  99.95377
  86.86722,  91.15217
  86.88725,  95.68707
  86.90728,  95.81690
  86.92731,  98.89544
  86.94734, 103.01234
  86.96737,  92.48358
  86.98740,  92.65003
  87.00743, 101.70599
  87.02747,  94.89102
  87.04750,  94.56765
  87.06753, 101.19278
  87.08756,  95.09855
  87.10759,  95.75497
  87.12762,  96.51790
  87.14765,  99.61730
  87.16768, 100.29997
  87.18771,  94.88984
  87.20774,  95.07909
  87.22777,  96.86285
  87.24780,  91.84398
  87.26783,  96.08093
  87.28786,  98.43148
  87.30789, 103.78864
  87.32793,  97.25087
  87.34796,  98.16612
  87.36799, 103.44211
  87.38802,  97.42959
  87.40805,  95.30026
  87.42808,  93.19953
  87.44811, 101.18595
  87.46814,  93.78856
  87.48817,  94.47496
  87.50820,  96.89158
  87.52823, 103.17753
  87.54826, 103.70912
  87.56830,  91.19018
  87.58833,  93.22795
  87.60836,  96.88486
  87.62839,  98.21496
  87.64842, 100.84444
  87.66845,  97.79729
  87.68848,  97.60411
  87.70851, 104.92776
  87.72854, 104.13243
  87.74857, 101.68492
  87.76860, 103.12176
  87.78863,  96.85652
  87.80867, 100.78770
  87.82870,  94.17263
  87.84873,  97.77194
  87.86876, 100.35850
  87.88879, 103.23780
  87.90882, 101.70003
  87.92885,  95.04870
  87.94888,  97.39825
  87.96891,  95.16891
  87.98895,  96.70543
  88.00898,  98.00853
  88.02901,  95.59938
  88.04904,  95.64650
  88.06907,  99.31754
  88.08910,  94.88556
  88.10913, 104.48488
  88.12916, 100.82898
  88.14920,  98.45937
  88.16923,  99.80047
  88.18926,  97.27488
  88.20929, 100.60943
  88.22932,  94.71259
  88.24935,  95.71887
  88.26938,  91.90282
  88.28941,  94.37190
  88.30944,  98.07359
  88.32948, 101.23283
  88.34951,  96.60878
  88.36954,  97.62903
  88.38957,  93.62061
  88.40960,  90.66687
  88.42963,  96.09233
  88.44966,  98.10071
  88.46970,  96.77703
  88.48973,  97.89747
  88.50976, 101.49092
  88.52979,  98.55433
  88.54982,  97.64070
  88.56985,  94.34385
  88.58988,  97.80749
  88.60992,  98.32985
  88.62995,  99.93020
  88.64998, 100.18047
  88.67001, 103.10261
  88.69004, 103.73885
  88.71007,  87.42676
  88.73010,  97.67861
  88.75013, 100.28978
  88.77017,  98.91397
  88.79020,  97.70771
  88.81023,  97.39988
  88.83026,  98.55494
  88.85029,  90.67924
  88.87032,  93.92495
  88.89036,  96.88075
  88.91039,  97.88145
  88.93042, 104.84606
  88.95045, 102.61606
  88.97048, 101.09270
  88.99051,  99.43192
  89.01055,  97.70356
  89.03058,  96.29829
  89.05061, 101.31735
  89.07064,  96.52127
  89.09067,  90.61264
  89.11070,  91.92198
  89.13074,  95.23379
  89.15077,  97.48611
  89.17080,  94.31461
  89.19083,  95.05284
  89.21086,  97.38365
  89.23089,  97.67814
  89.25093,  95.72929
  89.27096,  96.82774
  89.29099,  94.17684
  89.31102,  88.30340
  89.33105,  90.84138
  89.35108, 100.84679
  89.37112,  98.61401
  89.39115,  96.67704
  89.41118, 101.48414
  89.43121,  99.51253
  89.45124,  94.73668
  89.47128, 101.56199
  89.49131,  98.85419
  89.51134, 100.92883
  89.53137,  98.42499
  89.55140, 102.03858
  89.57144,  98.52532
  89.59147,  99.18326
  89.61150,  95.67695
  89.63153,  96.23716
  89.65156,  93.52471
  89.67160,  95.04035
  89.69163,  96.16775
  89.71166, 100.33660
  89.73169,  99.72628
  89.75172,  92.31900
  89.77176,  89.66320
  89.79179, 102.57850
  89.81182,  93.05994
  89.83185,  99.80864
  89.85189,  99.00505
  89.87192,  97.32865
  89.89195,  93.62557
  89.91198, 100.27517
  89.93201,  97.47581
  89.95205, 100.34485
  89.97208, 105.48150
  89.99211,  98.51824
  90.01214,  98.82238
  90.03217, 102.88829
  90.05221,  94.03158
  90.07224,  98.70593
  90.09227,  98.62599
  90.11230,  95.87805
  90.13234,  97.18555
  90.15237,  98.40286
  90.17240,  99.86439
  90.19243,  99.67700
  90.21246,  97.37039
  90.23250,  97.60328
  90.25253, 104.30543
  90.27256, 105.04810
  90.29259,  95.56893
  90.31263,  97.29693
  90.33266,  99.45215
  90.35269, 103.97114
  90.37272, 107.04462
  90.39276, 105.63550
  90.41279, 106.89620
  90.43282, 109.79093
  90.45285, 109.90186
  90.47289, 116.50749
  90.49292, 120.64434
  90.51295, 125.86321
  90.53298, 131.24938
  90.55301, 126.46600
  90.57305, 135.75332
  90.59308, 142.59472
  90.61311, 137.60753
  90.63314, 138.86631
  90.65318, 139.66181
  90.67321, 133.98364
  90.69324, 128.83929
  90.71328, 126.18348
  90.73331, 128.21352
  90.75334, 121.80242
  90.77337, 114.35582
  90.79340, 120.09719
  90.81344, 123.54508
  90.83347, 119.01455
  90.85350, 114.78261
  90.87354, 115.12103
  90.89357, 115.41270
  90.91360, 115.25220
  90.93363, 118.96034
  90.95367, 120.74702
  90.97370, 120.06194
  90.99373, 118.61836
  91.01376, 114.13177
  91.03380, 108.42257
  91.05383, 103.29610
  91.07386, 105.84183
  91.09390, 102.62504
  91.11393, 101.53260
  91.13396, 100.02035
  91.15399,  94.89127
  91.17403,  97.08248
  91.19406, 100.04567
  91.21409,  98.97205
  91.23413,  91.57794
  91.25416,  89.62435
  91.27419,  92.67868
  91.29423,  95.57349
  91.31426,  92.35443
  91.33429,  87.19043
  91.35432,  93.83783
  91.37436,  91.91567
  91.39439,  92.48613
  91.41442,  94.00159
  91.43446,  92.98367
  91.45449,  95.90786
  91.47452,  99.08626
  91.49455,  96.62260
  91.51459,  97.71775
  91.53462,  94.58976
  91.55465,  93.91603
  91.57469,  90.92184
  91.59472,  95.49102
  91.61475,  91.62044
  91.63479, 100.91608
  91.65482,  99.54332
  91.67485,  95.42053
  91.69489,  90.50925
  91.71492,  99.98203
  91.73495,  99.39831
  91.75499,  93.18322
  91.77502,  94.27994
  91.79505,  89.50218
  91.81508,  93.69575
  91.83512,  99.33204
  91.85515,  96.69977
  91.87518,  91.47998
  91.89522,  92.03530
  91.91525,  93.69412
  91.93528,  98.88784
  91.95532,  92.04650
  91.97535,  96.27806
  91.99538,  96.04279
  92.01542,  94.15130
  92.03545,  96.24534
  92.05548,  98.08040
  92.07552,  93.82543
  92.09555,  96.44605
  92.11559,  92.88800
  92.13562,  98.11178
  92.15565,  92.89084
  92.17568, 100.34410
  92.19572, 102.21685
  92.21575,  95.13553
  92.23579,  87.11299
  92.25582,  91.72942
  92.27585,  95.08507
  92.29589,  88.21221
  92.31592,  94.71057
  92.33595,  93.21277
  92.35599,  95.03118
  92.37602,  93.72947
  92.39605,  90.24813
  92.41609,  90.79778
  92.43612,  89.96325
  92.45615,  90.29236
  92.47619,  94.81465
  92.49622,  92.07311
  92.51626,  91.58663
  92.53629,  97.14242
  92.55632,  99.66208
  92.57636,  94.60486
  92.59639,  88.15184
  92.61642,  93.73212
  92.63646,  99.08998
  92.65649,  95.87756
  92.67652,  87.03391
  92.69656,  87.30317
  92.71659,  95.92782
  92.73663,  91.42414
  92.75666,  94.93436
  92.77669,  93.20259
  92.79673,  98.38316
  92.81676,  94.78498
  92.83680,  97.25871
  92.85683,  92.40055
  92.87686,  94.41126
  92.89690,  93.73287
  92.91693,  93.27759
  92.93697,  90.08125
  92.95700,  89.09581
  92.97703,  93.68958
  92.99707,  97.56959
  93.01710,  93.94369
  93.03713,  94.85795
  93.05717,  91.22570
  93.07720,  96.52313
  93.09724,  89.61635
  93.11727,  91.48001
  93.13731,  95.17071
  93.15734,  96.40314
  93.17737,  91.06299
  93.19741,  88.69619
  93.21744,  95.10432
  93.23748,  98.23764
  93.25751,  89.72733
  93.27754,  88.44119
  93.29758,  92.32311
  93.31761,  93.07215
  93.33765,  90.39912
  93.35768,  94.54216
  93.37771,  96.64991
  93.39775,  91.52808
  93.41778,  90.45310
  93.43782, 100.96200
  93.45785,  90.10203
  93.47789,  90.95181
  93.49792,  96.36254
  93.51795,  92.74425
  93.53799,  91.87580
  93.55802,  98.04096
  93.57806,  92.51250
  93.59809,  89.20880
  93.61813,  90.12864
  93.63816,  93.55751
  93.65819,  86.72159
  93.67823,  91.02951
  93.69826,  94.63803
  93.71830,  96.52459
  93.73833,  93.63525
  93.75837,  94.18553
  93.77840,  95.39233
  93.79843,  98.99195
  93.81847, 101.10171
  93.83850,  94.83800
  93.85854,  95.52958
  93.87857,  91.03021
  93.89861,  93.92114
  93.91864,  92.01525
  93.93868,  95.28572
  93.95871,  92.28893
  93.97875,  91.19237
  93.99878,  90.43919
  94.01882,  92.60825
  94.03885,  93.30494
  94.05889,  87.53785
  94.07892,  96.74355
  94.09895,  90.36382
  94.11899,  97.56934
  94.13902,  97.51172
  94.15906,  95.14838
  94.17909,  93.00695
  94.19913,  90.25063
  94.21916,  88.54543
  94.23920,  95.63793
  94.25923,  86.98441
  94.27927,  90.20416
  94.29930,  96.16271
  94.31934,  94.53703
  94.33937,  92.73244
  94.35941,  96.50811
  94.37944,  89.00151
  94.39948,  89.40997
  94.41951,  89.32887
  94.43954,  85.92711
  94.45958,  88.19970
  94.47961,  94.18332
  94.49965,  94.74760
  94.51968,  90.20328
  94.53972,  95.93621
  94.55976,  92.73356
  94.57979,  94.15117
  94.59982,  91.34161
  94.61986,  85.33656
  94.63989,  89.18381
  94.65993,  91.84705
  94.67996,  95.64990
  94.70000,  88.77857
  94.72003,  90.91532
  94.74007,  93.08287
  94.76010,  93.68385
  94.78014,  93.23371
  94.80017,  89.48475
  94.82021,  91.87663
  94.84024,  93.23862
  94.86028,  88.05438
  94.88032,  91.21503
  94.90035,  98.35050
  94.92039,  88.47681
  94.94042,  94.23279
  94.96046,  89.19941
  94.98049,  87.70709
  95.00053,  92.90101
  95.02056,  89.57071
  95.04060,  94.83332
  95.06063,  92.84349
  95.08067,  93.58989
  95.10070,  96.59115
  95.12074,  97.52984
  95.14077,  89.45025
  95.16081,  91.37217
  95.18084,  91.01516
  95.20088,  89.27696
  95.22091,  88.24594
  95.24095,  87.27776
  95.26099,  96.99519
  95.28102,  92.02566
  95.30106,  88.92777
  95.32109,  86.16983
  95.34113,  88.68646
  95.36116,  92.68819
  95.38120,  92.84833
  95.40123,  93.20970
  95.42127,  93.83977
  95.44130,  90.68525
  95.46134,  91.96529
  95.48138,  89.53835
  95.50141,  92.24062
  95.52145,  96.57415
  95.54148,  91.99315
  95.56152,  92.32156
  95.58155,  94.21062
  95.60159,  91.72737
  95.62163,  93.28482
  95.64166,  93.30935
  95.66170,  93.99461
  95.68173,  96.68660
  95.70177,  93.50495
  95.72180,  98.28612
  95.74184,  93.81855
  95.76188,  92.12660
  95.78191,  95.59105
  95.80195, 100.10849
  95.82198,  98.34124
  95.84202,  99.27695
  95.86206, 102.47962
  95.88209, 105.97319
  95.90213, 108.68613
  95.92216, 109.99797
  95.94220,  99.74767
  95.96224, 104.49505
  95.98227, 101.26207
  96.00231,  99.11632
  96.02234, 102.65613
  96.04238, 100.49812
  96.06241,  99.73433
  96.08245,  92.32193
  96.10249,  91.06159
  96.12252,  98.35431
  96.14256, 101.69141
  96.16259,  99.46028
  96.18263, 103.76260
  96.20267,  97.45111
  96.22270, 100.45729
  96.24274,  98.90185
  96.26278, 104.47101
  96.28281, 100.60695
  96.30285,  98.91889
  96.32288,  95.39568
  96.34292,  89.79167
  96.36296,  96.76114
  96.38299,  95.09741
  96.40303,  93.13491
  96.42306,  90.64469
  96.44310,  83.91273
  96.46314,  88.91142
  96.48317,  92.67258
  96.50321,  95.14058
  96.52325,  92.55574
  96.54328,  86.59179
  96.56332,  89.50825
  96.58336,  96.27786
  96.60339,  89.92056
  96.62343,  86.59646
  96.64346,  88.44979
  96.66350,  86.26237
  96.68354,  97.33039
  96.70357,  88.62819
  96.72361,  88.75754
  96.74365,  91.92029
  96.76368,  91.38626
  96.78372,  93.99877
  96.80376,  87.67244
  96.82379,  85.33975
  96.84383,  93.11127
  96.86387,  87.43811
  96.88390,  96.07713
  96.90394,  96.01414
  96.92397,  94.39777
  96.94401,  87.79700
  96.96405,  86.96573
  96.98409,  84.94296
  97.00412,  97.28056
  97.02416,  93.07544
  97.04420,  87.87831
  97.06423,  87.32482
  97.08427,  89.32171
  97.10431,  90.61225
  97.12434,  88.27426
  97.14438,  97.01207
  97.16441,  90.43685
  97.18445,  88.53444
  97.20449,  88.55539
  97.22453,  81.04708
  97.24456,  80.86487
  97.26460,  87.73954
  97.28464,  90.55229
  97.30467,  96.12188
  97.32471,  98.30378
  97.34475,  91.57026
  97.36478,  89.75133
  97.38482,  90.95352
  97.40486,  92.27182
  97.42490,  98.12747
  97.44493,  95.95468
  97.46497,  93.22726
  97.48500,  84.63983
  97.50504,  89.30520
  97.52508,  89.70523
  97.54512,  89.82977
  97.56515,  86.32802
  97.58519,  90.82508
  97.60523,  96.27686
  97.62526,  91.35475
  97.64530,  94.01117
  97.66534,  96.78674
  97.68538,  88.98106
  97.70541,  90.80895
  97.72545,  88.93870
  97.74549,  91.30676
  97.76552,  92.99587
  97.78556,  92.65248
  97.80560,  95.36403
  97.82564,  95.06620
  97.84567,  87.91960
  97.86571,  91.26296
  97.88575,  94.47688
  97.90578,  94.59073
  97.92582,  91.20622
  97.94586,  94.29323
  97.96590,  90.31195
  97.98593,  95.53738
  98.00597,  96.70177
  98.02601,  93.16474
  98.04605,  93.59127
  98.06608,  93.60095
  98.08612,  94.13481
  98.10616,  91.03734
  98.12620,  95.39148
  98.14623,  97.69490
  98.16627,  90.22564
  98.18631,  90.38989
  98.20635,  97.10352
  98.22638,  90.82799
  98.24642,  93.19075
  98.26646,  93.39148
  98.28650,  93.76997
  98.30653, 100.88362
  98.32657,  95.86858
  98.34661,  96.21600
  98.36665,  99.31342
  98.38669,  96.35253
  98.40672, 100.32241
  98.42676, 100.04736
  98.44680,  98.84951
  98.46684, 101.17222
  98.48687,  99.63592
  98.50691, 101.28052
  98.52695, 102.34460
  98.54699, 112.06951
  98.56702, 112.67615
  98.58706, 111.85383
  98.60710, 117.42613
  98.62714, 119.41620
  98.64718, 120.45635
  98.66721, 117.19275
  98.68725, 129.21918
  98.70729, 122.37611
  98.72733, 134.77105
  98.74736, 138.29763
  98.76740, 139.41449
  98.78744, 142.46425
  98.80748, 155.27506
  98.82752, 169.37889
  98.84755, 173.24103
  98.86759, 181.19519
  98.88763, 190.58380
  98.90767, 211.60188
  98.92771, 220.09514
  98.94775, 227.79256
  98.96778, 232.42693
  98.98782, 220.58053
  99.00786, 213.78626
  99.02790, 204.84855
  99.04794, 188.90778
  99.06797, 184.57276
  99.08801, 184.05472
  99.10805, 177.12602
  99.12809, 177.98573
  99.14813, 164.70774
  99.16817, 167.03149
  99.18821, 163.01688
  99.20824, 173.35880
  99.22828, 176.21889
  99.24832, 177.84853
  99.26836, 166.52112
  99.28840, 177.09234
  99.30844, 175.96837
  99.32847, 165.58469
  99.34851, 163.56068
  99.36855, 150.10532
  99.38859, 137.71463
  99.40863, 143.53784
  99.42867, 138.69659
  99.44870, 131.52078
  99.46874, 119.28756
  99.48878, 115.64866
  99.50882, 120.30658
  99.52886, 116.72607
  99.54890, 111.82093
  99.56893, 108.36340
  99.58897, 110.64595
  99.60901, 103.89586
  99.62905, 106.79868
  99.64909, 108.63541
  99.66913, 101.98600
  99.68917,  98.35435
  99.70920, 101.52967
  99.72924,  97.21625
  99.74928,  96.25262
  99.76932,  97.23532
  99.78936,  97.76331
  99.80940,  97.06146
  99.82944,  97.63073
  99.84948,  95.64975
  99.86952,  86.20877
  99.88955,  93.28463
  99.90959,  94.00222
  99.92963,  93.29393
  99.94967,  90.96043
  99.96971,  93.20659
  99.98975,  93.47362
 100.00979,  99.27384
 100.02983,  92.11043
 100.04987,  95.91558
 100.06991,  97.51838
 100.08994,  91.98820
 100.10998,  92.94569
 100.13002,  92.00178
 100.15006,  88.80897
 100.17010,  88.81486
 100.19014,  83.64341
 100.21018,  92.48067
 100.23022,  91.69554
 100.25026,  89.52534
 100.27030,  91.76728
 100.29033,  90.63010
 100.31037,  98.07125
 100.33041,  92.30079
 100.35045,  88.74597
 100.37049,  85.74580
 100.39053,  90.02764
 100.41057,  91.17606
 100.43061,  85.90303
 100.45065,  87.07828
 100.47069,  89.90141
 100.49073,  91.61587
 100.51077,  91.40315
 100.53080,  89.57516
 100.55084,  89.27863
 100.57088,  87.53292
 100.59092,  92.82370
 100.61096,  88.52770
 100.63100,  87.92503
 100.65104,  83.25085
 100.67108,  92.28291
 100.69112,  86.41066
 100.71116,  92.16247
 100.73120,  90.47782
 100.75124,  91.29666
 100.77128,  88.14992
 100.79132,  91.92157
 100.81136,  92.81762
 100.83140,  91.29474
 100.85144,  90.95297
 100.87148,  91.63646
 100.89152,  92.19624
 100.91156,  86.84304
 100.93160,  90.68436
 100.95164,  86.38952
 100.97167,  90.23130
 100.99172,  94.39357
 101.01175,  90.54681
 101.03179,  89.45979
 101.05183,  91.92554
 101.07188,  87.92019
 101.09191,  89.52802
 101.11195,  86.79366
 101.13200,  87.85532
 101.15203,  90.27783
 101.17207,  88.03822
 101.19212,  88.12992
 101.21215,  86.28109
 101.23219,  84.18213
 101.25223,  88.96465
 101.27227,  81.01901
 101.29231,  83.63924
 101.31235,  88.33806
 101.33239,  83.36247
 101.35243,  93.77845
 101.37247,  90.06386
 101.39251,  91.69705
 101.41255,  90.60485
 101.43259,  78.88118
 101.45263,  88.48600
 101.47268,  90.02648
 101.49272,  82.97949
 101.51276,  86.13735
 101.53280,  86.03755
 101.55284,  89.16607
 101.57288,  87.73882
 101.59292,  85.89883
 101.61296,  93.12801
 101.63300,  89.31140
 101.65304,  84.14040
 101.67308,  89.81494
 101.69312,  90.94104
 101.71316,  87.66163
 101.73320,  88.40082
 101.75324,  86.72811
 101.77328,  89.40495
 101.79332,  88.35092
 101.81336,  87.56458
 101.83340,  88.52821
 101.85344,  87.62270
 101.87348,  93.38775
 101.89352,  91.15057
 101.91356,  89.91362
 101.93360,  87.13230
 101.95364,  83.63907
 101.97369,  92.09569
 101.99372,  83.34804
 102.01377,  85.57176
 102.03381,  84.98522
 102.05385,  87.48128
 102.07389,  89.92571
 102.09393,  88.25379
 102.11397,  95.18193
 102.13401,  92.70465
 102.15405,  93.06343
 102.17409,  82.96711
 102.19413,  84.99894
 102.21417,  88.80105
 102.23421,  82.19401
 102.25425,  87.19430
 102.27430,  90.20893
 102.29434,  91.53966
 102.31438,  87.91219
 102.33442,  80.34128
 102.35446,  88.49342
 102.37450,  86.64363
 102.39454,  82.56162
 102.41458,  86.38356
 102.43462,  84.67097
 102.45466,  87.77847
 102.47471,  85.03910
 102.49475,  83.21262
 102.51479,  86.53763
 102.53483,  85.15316
 102.55487,  82.57769
 102.57491,  86.27013
 102.59495,  90.50038
 102.61499,  85.94217
 102.63503,  83.75473
 102.65508,  83.32561
 102.67512,  90.56542
 102.69516,  86.88829
 102.71520,  90.55191
 102.73524,  87.39929
 102.75528,  86.17908
 102.77532,  89.60601
 102.79536,  82.96465
 102.81540,  85.23047
 102.83545,  89.06968
 102.85549,  85.96933
 102.87553,  86.60460
 102.89557,  86.23800
 102.91561,  92.62578
 102.93565,  87.75047
 102.95569,  89.43717
 102.97574,  90.39862
 102.99578,  84.84770
 103.01582,  85.08960
 103.03586,  80.21005
 103.05590,  83.97846
 103.07594,  88.27128
 103.09598,  83.55577
 103.11603,  89.06165
 103.13607,  84.30089
 103.15611,  90.73603
 103.17615,  88.09654
 103.19619,  90.38046
 103.21624,  87.29048
 103.23628,  84.46663
 103.25632,  83.49346
 103.27636,  89.24842
 103.29640,  87.64888
 103.31645,  84.92763
 103.33649,  89.91267
 103.35653,  86.26189
 103.37657,  85.63690
 103.39661,  89.72019
 103.41665,  91.94552
 103.43670,  85.17893
 103.45674,  89.02569
 103.47678,  88.87182
 103.49682,  92.14660
 103.51686,  90.11356
 103.53691,  89.49880
 103.55695,  87.46190
 103.57699,  91.20050
 103.59703,  85.71627
 103.61707,  82.81828
 103.63712,  87.25670
 103.65716,  89.72738
 103.67720,  83.98288
 103.69724,  86.87103
 103.71728,  87.15066
 103.73733,  84.14302
 103.75737,  90.00534
 103.77741,  90.22751
 103.79745,  87.78863
 103.81750,  84.89839
 103.83754,  85.46036
 103.85758,  93.10975
 103.87762,  85.41430
 103.89766,  83.59473
 103.91771,  87.23227
 103.93775,  88.66268
 103.95779,  87.28282
 103.97783,  87.29367
 103.99788,  83.84538
 104.01792,  87.36026
 104.03796,  91.94763
 104.05800,  90.26695
 104.07805,  88.31271
 104.09809,  86.21379
 104.11813,  79.23600
 104.13817,  87.80096
 104.15822,  89.57744
 104.17826,  83.65160
 104.19830,  81.67982
 104.21834,  81.56623
 104.23839,  84.32994
 104.25843,  86.43694
 104.27847,  93.10147
 104.29851,  92.20774
 104.31856,  90.72871
 104.33860,  90.14847
 104.35864,  88.17243
 104.37869,  88.45670
 104.39873,  88.37439
 104.41877,  84.18530
 104.43881,  90.31222
 104.45886,  83.75999
 104.47890,  93.68101
 104.49894,  89.00748
 104.51899,  81.41778
 104.53903,  83.81812
 104.55907,  90.58271
 104.57912,  85.58440
 104.59916,  90.09995
 104.61920,  90.84670
 104.63925,  84.02144
 104.65929,  86.36070
 104.67933,  83.32596
 104.69937,  91.29506
 104.71942,  81.54003
 104.73946,  84.31361
 104.75950,  90.82050
 104.77955,  89.52332
 104.79959,  90.46955
 104.81963,  87.34291
 104.83968,  83.55781
 104.85972,  88.59378
 104.87976,  82.54100
 104.89981,  89.10722
 104.91985,  83.65299
 104.93989,  94.19706
 104.95994,  88.48676
 104.97998,  83.38954
 105.00002,  88.62954
 105.02007,  85.37770
 105.04011,  84.69527
 105.06015,  90.07772
 105.08020,  86.60197
 105.10024,  85.42602
 105.12028,  84.50326
 105.14033,  93.55496
 105.16037,  84.18326
 105.18041,  84.48749
 105.20046,  85.39755
 105.22050,  87.78851
 105.24055,  91.53741
 105.26059,  87.93666
 105.28063,  83.76493
 105.30068,  81.95245
 105.32072,  83.27955
 105.34076,  81.96745
 105.36081,  81.65849
 105.38085,  81.14047
 105.40089,  86.22797
 105.42094,  87.81215
 105.44098,  90.78961
 105.46103,  89.46654
 105.48107,  89.56506
 105.50111,  84.92431
 105.52116,  86.30571
 105.54120,  90.82356
 105.56125,  89.55147
 105.58129,  87.60088
 105.60133,  82.85593
 105.62138,  84.27911
 105.64142,  86.12400
 105.66147,  87.34915
 105.68151,  87.82598
 105.70155,  91.97464
 105.72160,  86.74558
 105.74164,  86.86289
 105.76169,  85.07837
 105.78173,  83.23714
 105.80178,  82.65796
 105.82182,  87.73596
 105.84186,  85.21210
 105.86191,  94.36754
 105.88195,  92.13110
 105.90200,  86.17759
 105.92204,  87.62696
 105.94209,  86.56912
 105.96213,  87.60521
 105.98217,  87.19245
 106.00222,  85.38984
 106.02226,  81.46028
 106.04231,  87.79636
 106.06235,  88.26945
 106.08240,  87.08753
 106.10244,  86.14756
 106.12248,  87.24300
 106.14253,  94.00749
 106.16257,  87.80424
 106.18262,  94.46343
 106.20266,  81.85415
 106.22271,  88.72563
 106.24275,  81.59752
 106.26280,  87.79599
 106.28284,  89.17370
 106.30289,  84.73687
 106.32293,  84.84484
 106.34298,  85.37148
 106.36302,  81.28695
 106.38307,  92.33391
 106.40311,  93.10128
 106.42315,  87.04720
 106.44320,  82.33555
 106.46325,  89.04154
 106.48329,  84.06454
 106.50334,  85.05685
 106.52338,  86.22472
 106.54343,  90.44462
 106.56347,  84.44770
 106.58351,  87.23158
 106.60356,  88.87073
 106.62360,  80.78735
 106.64365,  89.83986
 106.66370,  83.90602
 106.68374,  87.90156
 106.70379,  86.46476
 106.72383,  83.84279
 106.74388,  85.08789
 106.76392,  87.11142
 106.78397,  90.29940
 106.80401,  90.09392
 106.82406,  82.89867
 106.84410,  84.05884
 106.86415,  86.51030
 106.88419,  86.85820
 106.90424,  83.49685
 106.92428,  81.89417
 106.94433,  86.34077
 106.96437,  85.57657
 106.98442,  80.74493
 107.00446,  84.90675
 107.02451,  79.63661
 107.04456,  84.48186
 107.06460,  87.02643
 107.08465,  83.08424
 107.10469,  87.35028
 107.12474,  86.44975
 107.14478,  82.54437
 107.16483,  85.11173
 107.18488,  81.36844
 107.20492,  88.06454
 107.22497,  89.24185
 107.24501,  89.00714
 107.26506,  83.72200
 107.28510,  82.91479
 107.30515,  91.62726
 107.32520,  87.76870
 107.34524,  88.64192
 107.36529,  88.96551
 107.38533,  86.65176
 107.40538,  87.34150
 107.42542,  87.06106
 107.44547,  89.01647
 107.46552,  81.86599
 107.48556,  85.49741
 107.50561,  84.29296
 107.52566,  85.75602
 107.54570,  88.14806
 107.56575,  91.34643
 107.58579,  87.35311
 107.60584,  86.56493
 107.62589,  83.53002
 107.64593,  82.18378
 107.66598,  83.19238
 107.68602,  82.64208
 107.70607,  87.99227
 107.72612,  88.83285
 107.74616,  89.85851
 107.76621,  88.83729
 107.78625,  86.82105
 107.80630,  90.03045
 107.82635,  84.97269
 107.84639,  83.54207
 107.86644,  80.57147
 107.88649,  91.25295
 107.90653,  82.41568
 107.92658,  86.37647
 107.94663,  81.87101
 107.96667,  85.31468
 107.98672,  86.19391
 108.00677,  87.58840
 108.02681,  88.21517
 108.04686,  83.26220
 108.06691,  84.07124
 108.08695,  84.03874
 108.10700,  85.79891
 108.12705,  90.16450
 108.14709,  87.88779
 108.16714,  83.53908
 108.18719,  89.77782
 108.20723,  87.33630
 108.22728,  91.28499
 108.24733,  86.53030
 108.26737,  88.13199
 108.28742,  87.13406
 108.30747,  83.07195
 108.32751,  86.24139
 108.34756,  85.90437
 108.36761,  85.75582
 108.38765,  90.96938
 108.40770,  82.61810
 108.42775,  82.26933
 108.44780,  82.30750
 108.46784,  80.01123
 108.48789,  89.11450
 108.50794,  84.66375
 108.52798,  83.23226
 108.54803,  85.68811
 108.56808,  87.29968
 108.58813,  86.88494
 108.60817,  85.01341
 108.62822,  86.17400
 108.64827,  85.15156
 108.66831,  86.93829
 108.68836,  84.91783
 108.70841,  81.84210
 108.72846,  90.94657
 108.74850,  90.47225
 108.76855,  91.26478
 108.78860,  88.52636
 108.80865,  87.52388
 108.82869,  90.11863
 108.84874,  82.61155
 108.86879,  88.11465
 108.88884,  82.01631
 108.90888,  84.81879
 108.92893,  89.36276
 108.94898,  82.59734
 108.96903,  83.45741
 108.98907,  86.68631
 109.00912,  89.02903
 109.02917,  90.37541
 109.04922,  87.37105
 109.06927,  84.28140
 109.08931,  79.65746
 109.10936,  86.01367
 109.12941,  80.45228
 109.14946,  79.97751
 109.16950,  80.06234
 109.18955,  90.99714
 109.20960,  86.36950
 109.22965,  88.23645
 109.24970,  87.26770
 109.26974,  85.14194
 109.28979,  86.30314
 109.30984,  92.66972
 109.32989,  91.22669
 109.34994,  87.55233
 109.36998,  85.34358
 109.39003,  85.68335
 109.41008,  87.89348
 109.43013,  86.50553
 109.45018,  81.00296
 109.47023,  78.11233
 109.49028,  86.37398
 109.51032,  86.98222
 109.53037,  85.63309
 109.55042,  82.14262
 109.57047,  80.74856
 109.59052,  90.77165
 109.61057,  87.24128
 109.63061,  83.84785
 109.65066,  87.35538
 109.67071,  92.51783
 109.69076,  83.76530
 109.71081,  83.11308
 109.73086,  86.76980
 109.75090,  83.35289
 109.77095,  85.91103
 109.79100,  85.34047
 109.81105,  80.64335
 109.83110,  82.73768
 109.85115,  82.09291
 109.87120,  90.29378
 109.89125,  88.32051
 109.91129,  83.39048
 109.93134,  83.78830
 109.95139,  83.43014
 109.97144,  82.40608
 109.99149,  85.76330
 110.01154,  86.61983
 110.03159,  89.54129
 110.05164,  84.15521
 110.07169,  85.67177
 110.09174,  84.00107
 110.11178,  89.70708
 110.13183,  86.45321
 110.15188,  84.15029
 110.17193,  84.84657
 110.19198,  87.39313
 110.21203,  87.54507
 110.23208,  79.51511
 110.25213,  86.21115
 110.27218,  87.50014
 110.29223,  82.93385
 110.31227,  85.76297
 110.33232,  80.56076
 110.35237,  86.16395
 110.37242,  83.71515
 110.39247,  85.56038
 110.41252,  89.00404
 110.43257,  84.52161
 110.45262,  86.72214
 110.47267,  91.25481
 110.49272,  86.78296
 110.51277,  95.44471
 110.53282,  86.04628
 110.55287,  86.66987
 110.57292,  84.33389
 110.59297,  89.90154
 110.61302,  91.67620
 110.63307,  81.56801
 110.65312,  84.79086
 110.67317,  88.94093
 110.69321,  91.12105
 110.71327,  85.71993
 110.73331,  87.28274
 110.75337,  85.78815
 110.77341,  81.83541
 110.79346,  80.97525
 110.81352,  82.56467
 110.83356,  84.41772
 110.85361,  83.15627
 110.87366,  90.45272
 110.89371,  89.45564
 110.91376,  87.38684
 110.93381,  85.57524
 110.95386,  83.77037
 110.97391,  90.86031
 110.99396,  86.72178
 111.01401,  83.92813
 111.03407,  85.20120
 111.05411,  86.41672
 111.07416,  84.32442
 111.09422,  87.58784
 111.11426,  84.90702
 111.13432,  85.49290
 111.15437,  85.90989
 111.17442,  87.55074
 111.19447,  83.66319
 111.21452,  91.86172
 111.23457,  88.11854
 111.25462,  83.11546
 111.27467,  82.59884
 111.29472,  86.05958
 111.31477,  80.70575
 111.33482,  81.82795
 111.35487,  78.15694
 111.37492,  82.90141
 111.39497,  81.50388
 111.41502,  87.33595
 111.43507,  85.66766
 111.45512,  82.70049
 111.47517,  82.10386
 111.49523,  84.20599
 111.51528,  87.12568
 111.53533,  84.17654
 111.55538,  83.99000
 111.57543,  83.45909
 111.59548,  87.57151
 111.61553,  92.32661
 111.63558,  84.59755
 111.65563,  86.05600
 111.67568,  86.99486
 111.69573,  92.17604
 111.71578,  87.85474
 111.73584,  85.12675
 111.75589,  84.11516
 111.77594,  84.30631
 111.79599,  85.08939
 111.81604,  83.64274
 111.83609,  79.39000
 111.85614,  83.01526
 111.87619,  87.37743
 111.89625,  85.40335
 111.91630,  89.77193
 111.93635,  84.95784
 111.95640,  89.86047
 111.97645,  82.01236
 111.99650,  89.82340
 112.01655,  91.97647
 112.03661,  85.58133
 112.05666,  89.46410
 112.07671,  82.62034
 112.09676,  87.12252
 112.11681,  81.70181
 112.13686,  76.31465
 112.15692,  82.50889
 112.17697,  87.40449
 112.19702,  82.14793
 112.21707,  81.00056
 112.23712,  79.84899
 112.25717,  79.15917
 112.27722,  84.86146
 112.29728,  82.40841
 112.31733,  85.51006
 112.33738,  88.19951
 112.35743,  85.74853
 112.37749,  84.46908
 112.39754,  85.50425
 112.41759,  89.53585
 112.43764,  90.46245
 112.45769,  86.48013
 112.47774,  88.55278
 112.49780,  84.26227
 112.51785,  83.53642
 112.53790,  87.24985
 112.55795,  87.74099
 112.57801,  87.38456
 112.59806,  85.36818
 112.61811,  84.13663
 112.63816,  82.51594
 112.65822,  81.17496
 112.67827,  89.76337
 112.69832,  86.35868
 112.71837,  87.35497
 112.73842,  79.14657
 112.75848,  85.31411
 112.77853,  83.32709
 112.79858,  89.85200
 112.81863,  83.77613
 112.83869,  81.72738
 112.85874,  85.15321
 112.87879,  91.16841
 112.89884,  80.95466
 112.91890,  86.00302
 112.93895,  85.97391
 112.95900,  89.11346
 112.97905,  83.28557
 112.99911,  82.83585
 113.01916,  83.97158
 113.03922,  81.12242
 113.05927,  81.37296
 113.07932,  86.86730
 113.09937,  84.17942
 113.11943,  78.80676
 113.13948,  91.70143
 113.15953,  85.35126
 113.17958,  84.60823
 113.19964,  82.31275
 113.21969,  79.78058
 113.23974,  83.78788
 113.25980,  88.29619
 113.27985,  83.62319
 113.29990,  87.29864
 113.31996,  86.15156
 113.34001,  80.20959
 113.36006,  82.51643
 113.38012,  89.28833
 113.40017,  89.41416
 113.42022,  87.11807
 113.44028,  81.83082
 113.46033,  90.20540
 113.48038,  87.62658
 113.50044,  83.32339
 113.52049,  86.93585
 113.54054,  86.94903
 113.56060,  84.94495
 113.58065,  83.78882
 113.60070,  86.25109
 113.62076,  78.62046
 113.64081,  84.17575
 113.66087,  87.69031
 113.68092,  85.60168
 113.70097,  81.46530
 113.72103,  85.46411
 113.74108,  83.21036
 113.76113,  85.55748
 113.78119,  87.65210
 113.80124,  86.01763
 113.82130,  86.77562
 113.84135,  85.38869
 113.86140,  84.92919
 113.88146,  85.79713
 113.90151,  83.19916
 113.92157,  89.41937
 113.94162,  85.05438
 113.96167,  79.00503
 113.98173,  84.07496
 114.00178,  80.45011
 114.02184,  84.02616
 114.04189,  81.88501
 114.06195,  81.42724
 114.08200,  87.20129
 114.10206,  82.67586
 114.12211,  90.12145
 114.14216,  85.20237
 114.16222,  87.47282
 114.18227,  88.73665
 114.20233,  81.92827
 114.22238,  90.86722
 114.24244,  83.76524
 114.26249,  88.30514
 114.28255,  86.20444
 114.30260,  84.24320
 114.32266,  83.50608
 114.34271,  88.07829
 114.36276,  85.90647
 114.38282,  89.31677
 114.40287,  85.44915
 114.42293,  86.13443
 114.44298,  89.99921
 114.46304,  81.83172
 114.48309,  76.69616
 114.50315,  90.17061
 114.52320,  86.66171
 114.54326,  84.28629
 114.56331,  87.48306
 114.58337,  79.16339
 114.60342,  85.45690
 114.62348,  84.89588
 114.64353,  84.40854
 114.66359,  82.25988
 114.68365,  90.71081
 114.70370,  86.47446
 114.72375,  89.71986
 114.74381,  85.89472
 114.76387,  86.76017
 114.78392,  90.53679
 114.80398,  89.53964
 114.82403,  92.20584
 114.84409,  93.88012
 114.86414,  93.55591
 114.88420,  84.24047
 114.90425,  87.94624
 114.92431,  92.92583
 114.94437,  89.09283
 114.96442,  92.42013
 114.98448,  93.62414
 115.00453,  82.29208
 115.02459,  81.61938
 115.04464,  84.82311
 115.06470,  88.57098
 115.08475,  93.77915
 115.10481,  87.34870
 115.12487,  85.11343
 115.14492,  94.67989
 115.16498,  90.64345
 115.18503,  93.60951
 115.20509,  88.65642
 115.22515,  91.96270
 115.24520,  90.70533
 115.26526,  86.02904
 115.28531,  89.16066
 115.30537,  89.58809
 115.32543,  87.88482
 115.34548,  87.57706
 115.36554,  91.19082
 115.38560,  90.46416
 115.40565,  94.99866
 115.42571,  88.90708
 115.44577,  96.44391
 115.46582,  91.55779
 115.48588,  88.63246
 115.50593,  93.77956
 115.52599, 101.67977
 115.54605,  94.86900
 115.56610,  99.21825
 115.58616,  96.96402
 115.60622, 103.19901
 115.62627,  97.30812
 115.64633, 106.66702
 115.66639, 101.40007
 115.68644,  97.72307
 115.70650, 104.31652
 115.72656, 102.18105
 115.74661, 101.93131
 115.76667, 101.96828
 115.78673, 105.56465
 115.80678, 103.58586
 115.82684, 110.18894
 115.84690, 110.77936
 115.86696, 114.06178
 115.88701, 106.31800
 115.90707, 113.29694
 115.92713, 123.28824
 115.94719, 115.34486
 115.96724, 115.69213
 115.98730, 122.06228
 116.00736, 129.28107
 116.02741, 130.09192
 116.04747, 136.94536
 116.06753, 132.78538
 116.08758, 137.75038
 116.10764, 136.08034
 116.12770, 151.13831
 116.14776, 154.00267
 116.16782, 152.93015
 116.18787, 150.62740
 116.20793, 167.53059
 116.22799, 172.02729
 116.24805, 191.17077
 116.26810, 184.50979
 116.28816, 196.54469
 116.30822, 210.41506
 116.32828, 220.50727
 116.34834, 233.08610
 116.36839, 238.73533
 116.38845, 233.37341
 116.40851, 238.80518
 116.42857, 245.85873
 116.44862, 238.01204
 116.46868, 235.60059
 116.48874, 229.97266
 116.50880, 221.34496
 116.52886, 215.90336
 116.54891, 207.81559
 116.56897, 202.83198
 116.58903, 196.22047
 116.60909, 192.57438
 116.62915, 188.97955
 116.64921, 195.16591
 116.66927, 190.55065
 116.68932, 181.04329
 116.70938, 187.21786
 116.72944, 187.72726
 116.74950, 185.12643
 116.76956, 185.06977
 116.78962, 185.99786
 116.80967, 188.67951
 116.82973, 186.14283
 116.84979, 182.68896
 116.86985, 187.56410
 116.88991, 177.77852
 116.90997, 175.43470
 116.93003, 178.06445
 116.95009, 175.73553
 116.97014, 162.25163
 116.99020, 156.78457
 117.01026, 150.18815
 117.03032, 145.99064
 117.05038, 150.08332
 117.07044, 140.56364
 117.09050, 129.37260
 117.11056, 127.85427
 117.13061, 129.68152
 117.15067, 128.97695
 117.17073, 122.79050
 117.19079, 121.16184
 117.21085, 115.57764
 117.23091, 117.98900
 117.25097, 120.50135
 117.27103, 116.79363
 117.29109, 110.75461
 117.31115, 106.14915
 117.33121, 108.36423
 117.35127, 110.65301
 117.37133, 110.69881
 117.39139, 104.87338
 117.41145, 100.76632
 117.43151, 106.25516
 117.45156, 106.10125
 117.47163, 104.92407
 117.49168, 102.91360
 117.51175, 102.17285
 117.53180, 100.31170
 117.55186,  96.12079
 117.57192,  99.47369
 117.59198,  99.36181
 117.61205,  95.96707
 117.63210,  95.25392
 117.65216,  99.10887
 117.67222,  95.20362
 117.69228, 102.30820
 117.71234,  91.49200
 117.73240,  92.84476
 117.75246, 100.29826
 117.77252,  99.37007
 117.79258,  94.30623
 117.81265,  95.22804
 117.83270,  91.59441
 117.85277,  89.26981
 117.87283,  88.89744
 117.89289,  94.67828
 117.91295, 100.98485
 117.93301,  91.64265
 117.95307,  91.79843
 117.97313,  91.25509
 117.99319,  92.12491
 118.01325,  90.03794
 118.03331,  94.55680
 118.05337,  92.25954
 118.07343,  98.42443
 118.09349,  92.34127
 118.11355,  93.82303
 118.13361,  85.52140
 118.15368,  82.53967
 118.17374,  85.38639
 118.19380,  90.52998
 118.21386,  86.66081
 118.23392,  86.79764
 118.25398,  91.27266
 118.27404,  87.59402
 118.29410,  89.61230
 118.31416,  88.53538
 118.33422,  90.93815
 118.35428,  82.78106
 118.37435,  91.89001
 118.39441,  96.98203
 118.41447,  94.08864
 118.43453,  94.21564
 118.45459,  89.35718
 118.47465,  92.66653
 118.49472,  88.29861
 118.51478,  88.49616
 118.53484,  91.54756
 118.55490,  94.75362
 118.57496,  88.14238
 118.59502,  87.28646
 118.61508,  87.00282
 118.63515,  91.63177
 118.65521,  82.49642
 118.67527,  92.90138
 118.69533,  90.19917
 118.71540,  82.80134
 118.73546,  86.47902
 118.75552,  89.78767
 118.77558,  91.43737
 118.79564,  87.44156
 118.81571,  91.58878
 118.83577,  86.03379
 118.85583,  88.28214
 118.87589,  86.84212
 118.89595,  76.86508
 118.91601,  88.97111
 118.93608,  82.86740
 118.95614,  87.47957
 118.97620,  86.31629
 118.99626,  77.19007
 119.01633,  81.75834
 119.03639,  85.73547
 119.05645,  88.41903
 119.07651,  86.54264
 119.09658,  83.55916
 119.11664,  89.04855
 119.13670,  82.14118
 119.15677,  85.92462
 119.17683,  91.35018
 119.19689,  84.51460
 119.21695,  83.55743
 119.23702,  85.86348
 119.25708,  81.18878
 119.27714,  87.40942
 119.29721,  87.69352
 119.31727,  88.58137
 119.33733,  84.60974
 119.35739,  82.21750
 119.37746,  84.31558
 119.39752,  79.87823
 119.41758,  89.20197
 119.43765,  89.69275
 119.45771,  89.39257
 119.47777,  83.36735
 119.49784,  87.40695
 119.51790,  86.71710
 119.53796,  83.84270
